SAO LUIS EMBRACE-03 <305> 1 Min. Reported data

 DD MM YYYY  HH MM   D(Deg)  H(nT)   Z(nT)   I(Deg)   F(nT)

 01 11 2013  00 00  -21.0234 25998.3 -03499.6 -07.6663 26232.8
 01 11 2013  00 01  -21.0235 25998.0 -03499.4 -07.6661 26232.5
 01 11 2013  00 02  -21.0238 25997.9 -03499.4 -07.6662 26232.3
 01 11 2013  00 03  -21.0240 25997.8 -03499.4 -07.6662 26232.3
 01 11 2013  00 04  -21.0244 25997.8 -03499.4 -07.6661 26232.2
 01 11 2013  00 05  -21.0248 25997.6 -03499.4 -07.6662 26232.1
 01 11 2013  00 06  -21.0255 25997.5 -03499.4 -07.6663 26232.0
 01 11 2013  00 07  -21.0258 25997.4 -03499.4 -07.6663 26231.9
 01 11 2013  00 08  -21.0263 25997.3 -03499.4 -07.6663 26231.8
 01 11 2013  00 09  -21.0265 25997.3 -03499.4 -07.6663 26231.8
 01 11 2013  00 10  -21.0267 25997.3 -03499.4 -07.6664 26231.8
 01 11 2013  00 11  -21.0269 25997.4 -03499.5 -07.6664 26231.9
 01 11 2013  00 12  -21.0270 25997.6 -03499.6 -07.6666 26232.1
 01 11 2013  00 13  -21.0269 25997.7 -03499.6 -07.6667 26232.2
 01 11 2013  00 14  -21.0267 25997.7 -03499.7 -07.6667 26232.2
 01 11 2013  00 15  -21.0264 25997.8 -03499.7 -07.6668 26232.3
 01 11 2013  00 16  -21.0262 25997.8 -03499.8 -07.6669 26232.4
 01 11 2013  00 17  -21.0260 25998.0 -03499.8 -07.6670 26232.5
 01 11 2013  00 18  -21.0259 25998.1 -03499.9 -07.6672 26232.7
 01 11 2013  00 19  -21.0258 25998.3 -03500.1 -07.6674 26232.8
 01 11 2013  00 20  -21.0257 25998.5 -03500.2 -07.6675 26233.1
 01 11 2013  00 21  -21.0256 25998.5 -03500.2 -07.6676 26233.1
 01 11 2013  00 22  -21.0254 25998.8 -03500.3 -07.6677 26233.3
 01 11 2013  00 23  -21.0253 25999.1 -03500.4 -07.6680 26233.7
 01 11 2013  00 24  -21.0254 25999.4 -03500.5 -07.6682 26234.0
 01 11 2013  00 25  -21.0253 25999.5 -03500.6 -07.6683 26234.1
 01 11 2013  00 26  -21.0250 25999.6 -03500.6 -07.6683 26234.2
 01 11 2013  00 27  -21.0244 25999.8 -03500.7 -07.6683 26234.4
 01 11 2013  00 28  -21.0240 25999.8 -03500.7 -07.6684 26234.5
 01 11 2013  00 29  -21.0236 26000.0 -03500.8 -07.6685 26234.6
 01 11 2013  00 30  -21.0233 26000.0 -03500.8 -07.6685 26234.6
 01 11 2013  00 31  -21.0230 26000.1 -03500.9 -07.6686 26234.7
 01 11 2013  00 32  -21.0227 26000.1 -03500.9 -07.6686 26234.8
 01 11 2013  00 33  -21.0223 26000.3 -03500.9 -07.6687 26234.9
 01 11 2013  00 34  -21.0220 26000.3 -03501.0 -07.6689 26235.0
 01 11 2013  00 35  -21.0218 26000.4 -03501.0 -07.6689 26235.0
 01 11 2013  00 36  -21.0216 26000.5 -03501.1 -07.6691 26235.1
 01 11 2013  00 37  -21.0215 26000.5 -03501.2 -07.6692 26235.2
 01 11 2013  00 38  -21.0214 26000.7 -03501.3 -07.6693 26235.3
 01 11 2013  00 39  -21.0214 26000.7 -03501.3 -07.6694 26235.4
 01 11 2013  00 40  -21.0213 26000.7 -03501.3 -07.6694 26235.4
 01 11 2013  00 41  -21.0213 26000.6 -03501.3 -07.6694 26235.3
 01 11 2013  00 42  -21.0211 26000.5 -03501.3 -07.6694 26235.2
 01 11 2013  00 43  -21.0207 26000.3 -03501.2 -07.6692 26235.0
 01 11 2013  00 44  -21.0204 26000.2 -03501.1 -07.6692 26234.9
 01 11 2013  00 45  -21.0205 26000.1 -03501.1 -07.6692 26234.8
 01 11 2013  00 46  -21.0205 26000.0 -03501.1 -07.6693 26234.7
 01 11 2013  00 47  -21.0206 26000.0 -03501.2 -07.6694 26234.6
 01 11 2013  00 48  -21.0206 25999.9 -03501.2 -07.6695 26234.6
 01 11 2013  00 49  -21.0208 25999.9 -03501.3 -07.6696 26234.6
 01 11 2013  00 50  -21.0209 25999.8 -03501.3 -07.6697 26234.5
 01 11 2013  00 51  -21.0210 25999.8 -03501.3 -07.6697 26234.5
 01 11 2013  00 52  -21.0211 25999.8 -03501.4 -07.6698 26234.5
 01 11 2013  00 53  -21.0215 25999.8 -03501.5 -07.6700 26234.5
 01 11 2013  00 54  -21.0218 25999.8 -03501.5 -07.6701 26234.5
 01 11 2013  00 55  -21.0221 25999.9 -03501.6 -07.6702 26234.6
 01 11 2013  00 56  -21.0224 25999.9 -03501.7 -07.6704 26234.7
 01 11 2013  00 57  -21.0227 26000.0 -03501.7 -07.6705 26234.7
 01 11 2013  00 58  -21.0227 25999.9 -03501.7 -07.6704 26234.7
 01 11 2013  00 59  -21.0224 25999.8 -03501.6 -07.6704 26234.6
 01 11 2013  01 00  -21.0221 25999.7 -03501.6 -07.6703 26234.4
 01 11 2013  01 01  -21.0219 25999.6 -03501.6 -07.6703 26234.4
 01 11 2013  01 02  -21.0217 25999.6 -03501.6 -07.6704 26234.3
 01 11 2013  01 03  -21.0216 25999.6 -03501.6 -07.6704 26234.4
 01 11 2013  01 04  -21.0215 25999.7 -03501.7 -07.6706 26234.4
 01 11 2013  01 05  -21.0214 25999.7 -03501.8 -07.6707 26234.5
 01 11 2013  01 06  -21.0216 25999.8 -03501.9 -07.6709 26234.6
 01 11 2013  01 07  -21.0216 25999.9 -03502.0 -07.6711 26234.7
 01 11 2013  01 08  -21.0214 26000.0 -03502.0 -07.6712 26234.8
 01 11 2013  01 09  -21.0212 26000.1 -03502.1 -07.6713 26234.9
 01 11 2013  01 10  -21.0209 26000.1 -03502.1 -07.6714 26234.9
 01 11 2013  01 11  -21.0205 26000.2 -03502.2 -07.6714 26235.0
 01 11 2013  01 12  -21.0204 26000.0 -03502.2 -07.6715 26234.8
 01 11 2013  01 13  -21.0202 26000.0 -03502.2 -07.6715 26234.8
 01 11 2013  01 14  -21.0201 26000.0 -03502.2 -07.6716 26234.8
 01 11 2013  01 15  -21.0203 26000.0 -03502.3 -07.6717 26234.9
 01 11 2013  01 16  -21.0205 26000.0 -03502.3 -07.6718 26234.9
 01 11 2013  01 17  -21.0206 26000.2 -03502.4 -07.6720 26235.0
 01 11 2013  01 18  -21.0208 26000.2 -03502.5 -07.6721 26235.0
 01 11 2013  01 19  -21.0208 26000.3 -03502.5 -07.6722 26235.1
 01 11 2013  01 20  -21.0207 26000.2 -03502.5 -07.6721 26235.0
 01 11 2013  01 21  -21.0204 26000.3 -03502.5 -07.6722 26235.1
 01 11 2013  01 22  -21.0203 26000.3 -03502.6 -07.6722 26235.2
 01 11 2013  01 23  -21.0203 26000.5 -03502.7 -07.6724 26235.4
 01 11 2013  01 24  -21.0204 26000.5 -03502.7 -07.6725 26235.4
 01 11 2013  01 25  -21.0205 26000.6 -03502.7 -07.6725 26235.5
 01 11 2013  01 26  -21.0207 26000.6 -03502.7 -07.6725 26235.4
 01 11 2013  01 27  -21.0208 26000.6 -03502.7 -07.6725 26235.5
 01 11 2013  01 28  -21.0208 26000.6 -03502.7 -07.6725 26235.5
 01 11 2013  01 29  -21.0207 26000.6 -03502.7 -07.6724 26235.4
 01 11 2013  01 30  -21.0206 26000.3 -03502.5 -07.6721 26235.1
 01 11 2013  01 31  -21.0204 26000.2 -03502.4 -07.6720 26235.0
 01 11 2013  01 32  -21.0202 25999.9 -03502.3 -07.6719 26234.8
 01 11 2013  01 33  -21.0200 25999.9 -03502.3 -07.6718 26234.7
 01 11 2013  01 34  -21.0200 25999.8 -03502.3 -07.6718 26234.6
 01 11 2013  01 35  -21.0201 25999.6 -03502.3 -07.6719 26234.5
 01 11 2013  01 36  -21.0203 25999.5 -03502.3 -07.6719 26234.3
 01 11 2013  01 37  -21.0206 25999.4 -03502.3 -07.6719 26234.2
 01 11 2013  01 38  -21.0208 25999.4 -03502.3 -07.6720 26234.2
 01 11 2013  01 39  -21.0208 25999.7 -03502.5 -07.6723 26234.5
 01 11 2013  01 40  -21.0210 25999.7 -03502.5 -07.6724 26234.5
 01 11 2013  01 41  -21.0211 25999.6 -03502.5 -07.6723 26234.4
 01 11 2013  01 42  -21.0210 25999.8 -03502.7 -07.6726 26234.7
 01 11 2013  01 43  -21.0212 25999.8 -03502.7 -07.6726 26234.7
 01 11 2013  01 44  -21.0216 25999.9 -03502.8 -07.6728 26234.8
 01 11 2013  01 45  -21.0218 26000.1 -03502.8 -07.6729 26235.0
 01 11 2013  01 46  -21.0220 25999.9 -03502.7 -07.6728 26234.8
 01 11 2013  01 47  -21.0221 26000.0 -03502.8 -07.6728 26234.9
 01 11 2013  01 48  -21.0222 26000.0 -03502.8 -07.6728 26234.9
 01 11 2013  01 49  -21.0221 26000.0 -03502.7 -07.6728 26234.8
 01 11 2013  01 50  -21.0221 26000.2 -03502.8 -07.6729 26235.1
 01 11 2013  01 51  -21.0223 26000.2 -03502.9 -07.6729 26235.1
 01 11 2013  01 52  -21.0227 26000.2 -03502.9 -07.6730 26235.1
 01 11 2013  01 53  -21.0230 26000.2 -03502.9 -07.6730 26235.1
 01 11 2013  01 54  -21.0231 26000.2 -03502.9 -07.6730 26235.2
 01 11 2013  01 55  -21.0232 26000.4 -03503.0 -07.6731 26235.3
 01 11 2013  01 56  -21.0235 26000.4 -03502.9 -07.6731 26235.3
 01 11 2013  01 57  -21.0236 26000.5 -03503.0 -07.6731 26235.4
 01 11 2013  01 58  -21.0238 26000.6 -03503.1 -07.6732 26235.6
 01 11 2013  01 59  -21.0240 26000.8 -03503.1 -07.6733 26235.7
 01 11 2013  02 00  -21.0242 26000.9 -03503.2 -07.6735 26235.9
 01 11 2013  02 01  -21.0242 26001.4 -03503.4 -07.6738 26236.4
 01 11 2013  02 02  -21.0243 26001.8 -03503.6 -07.6741 26236.8
 01 11 2013  02 03  -21.0241 26002.3 -03503.8 -07.6744 26237.3
 01 11 2013  02 04  -21.0241 26002.9 -03504.1 -07.6748 26237.9
 01 11 2013  02 05  -21.0242 26003.2 -03504.2 -07.6750 26238.2
 01 11 2013  02 06  -21.0242 26003.9 -03504.5 -07.6754 26239.0
 01 11 2013  02 07  -21.0242 26004.4 -03504.7 -07.6757 26239.5
 01 11 2013  02 08  -21.0240 26004.8 -03504.9 -07.6759 26239.9
 01 11 2013  02 09  -21.0241 26005.3 -03505.1 -07.6762 26240.5
 01 11 2013  02 10  -21.0243 26005.8 -03505.2 -07.6764 26240.9
 01 11 2013  02 11  -21.0247 26005.7 -03505.2 -07.6763 26240.9
 01 11 2013  02 12  -21.0246 26006.1 -03505.2 -07.6763 26241.2
 01 11 2013  02 13  -21.0246 26006.5 -03505.3 -07.6764 26241.7
 01 11 2013  02 14  -21.0247 26007.0 -03505.4 -07.6765 26242.1
 01 11 2013  02 15  -21.0250 26007.1 -03505.4 -07.6765 26242.2
 01 11 2013  02 16  -21.0252 26007.2 -03505.4 -07.6764 26242.4
 01 11 2013  02 17  -21.0255 26007.2 -03505.3 -07.6762 26242.4
 01 11 2013  02 18  -21.0256 26007.7 -03505.4 -07.6763 26242.9
 01 11 2013  02 19  -21.0258 26007.7 -03505.4 -07.6761 26242.9
 01 11 2013  02 20  -21.0260 26008.0 -03505.4 -07.6761 26243.2
 01 11 2013  02 21  -21.0261 26008.1 -03505.3 -07.6759 26243.3
 01 11 2013  02 22  -21.0263 26008.1 -03505.2 -07.6757 26243.2
 01 11 2013  02 23  -21.0263 26008.1 -03505.1 -07.6755 26243.2
 01 11 2013  02 24  -21.0263 26007.9 -03504.9 -07.6752 26243.0
 01 11 2013  02 25  -21.0260 26007.6 -03504.7 -07.6747 26242.7
 01 11 2013  02 26  -21.0256 26007.5 -03504.5 -07.6742 26242.6
 01 11 2013  02 27  -21.0254 26007.5 -03504.4 -07.6741 26242.5
 01 11 2013  02 28  -21.0253 26007.4 -03504.3 -07.6740 26242.4
 01 11 2013  02 29  -21.0251 26007.2 -03504.2 -07.6738 26242.3
 01 11 2013  02 30  -21.0248 26007.4 -03504.3 -07.6738 26242.4
 01 11 2013  02 31  -21.0244 26007.5 -03504.3 -07.6738 26242.5
 01 11 2013  02 32  -21.0240 26007.5 -03504.3 -07.6738 26242.5
 01 11 2013  02 33  -21.0239 26007.5 -03504.3 -07.6738 26242.5
 01 11 2013  02 34  -21.0238 26007.5 -03504.2 -07.6737 26242.5
 01 11 2013  02 35  -21.0236 26007.5 -03504.2 -07.6737 26242.5
 01 11 2013  02 36  -21.0235 26007.2 -03504.0 -07.6734 26242.1
 01 11 2013  02 37  -21.0236 26006.9 -03503.8 -07.6731 26241.9
 01 11 2013  02 38  -21.0237 26006.7 -03503.8 -07.6729 26241.7
 01 11 2013  02 39  -21.0237 26006.4 -03503.6 -07.6726 26241.4
 01 11 2013  02 40  -21.0235 26006.0 -03503.4 -07.6723 26241.0
 01 11 2013  02 41  -21.0234 26005.9 -03503.2 -07.6721 26240.8
 01 11 2013  02 42  -21.0236 26005.7 -03503.2 -07.6720 26240.6
 01 11 2013  02 43  -21.0239 26005.6 -03503.2 -07.6720 26240.5
 01 11 2013  02 44  -21.0241 26005.3 -03503.0 -07.6717 26240.1
 01 11 2013  02 45  -21.0242 26005.2 -03503.0 -07.6717 26240.1
 01 11 2013  02 46  -21.0242 26005.2 -03502.9 -07.6716 26240.0
 01 11 2013  02 47  -21.0245 26005.1 -03502.9 -07.6716 26240.0
 01 11 2013  02 48  -21.0246 26005.0 -03502.9 -07.6715 26239.9
 01 11 2013  02 49  -21.0244 26005.0 -03502.8 -07.6714 26239.8
 01 11 2013  02 50  -21.0240 26004.9 -03502.7 -07.6712 26239.8
 01 11 2013  02 51  -21.0234 26004.9 -03502.7 -07.6711 26239.7
 01 11 2013  02 52  -21.0227 26004.8 -03502.6 -07.6710 26239.6
 01 11 2013  02 53  -21.0217 26004.6 -03502.5 -07.6708 26239.4
 01 11 2013  02 54  -21.0205 26004.5 -03502.4 -07.6706 26239.3
 01 11 2013  02 55  -21.0194 26004.4 -03502.3 -07.6706 26239.1
 01 11 2013  02 56  -21.0185 26004.1 -03502.3 -07.6706 26238.9
 01 11 2013  02 57  -21.0177 26003.9 -03502.2 -07.6705 26238.7
 01 11 2013  02 58  -21.0172 26003.9 -03502.3 -07.6706 26238.7
 01 11 2013  02 59  -21.0168 26003.9 -03502.4 -07.6708 26238.7
 01 11 2013  03 00  -21.0165 26003.8 -03502.4 -07.6709 26238.7
 01 11 2013  03 01  -21.0165 26003.6 -03502.4 -07.6709 26238.4
 01 11 2013  03 02  -21.0166 26003.5 -03502.4 -07.6710 26238.3
 01 11 2013  03 03  -21.0165 26003.5 -03502.4 -07.6710 26238.3
 01 11 2013  03 04  -21.0164 26003.6 -03502.5 -07.6712 26238.4
 01 11 2013  03 05  -21.0167 26003.7 -03502.7 -07.6715 26238.5
 01 11 2013  03 06  -21.0172 26003.6 -03502.7 -07.6715 26238.4
 01 11 2013  03 07  -21.0175 26003.3 -03502.5 -07.6713 26238.1
 01 11 2013  03 08  -21.0177 26003.1 -03502.4 -07.6711 26237.9
 01 11 2013  03 09  -21.0179 26003.0 -03502.4 -07.6710 26237.8
 01 11 2013  03 10  -21.0184 26003.1 -03502.4 -07.6711 26237.9
 01 11 2013  03 11  -21.0185 26003.1 -03502.4 -07.6711 26237.9
 01 11 2013  03 12  -21.0185 26003.1 -03502.4 -07.6712 26238.0
 01 11 2013  03 13  -21.0185 26002.9 -03502.3 -07.6710 26237.7
 01 11 2013  03 14  -21.0188 26002.7 -03502.2 -07.6709 26237.5
 01 11 2013  03 15  -21.0191 26002.6 -03502.2 -07.6708 26237.4
 01 11 2013  03 16  -21.0194 26002.7 -03502.3 -07.6709 26237.5
 01 11 2013  03 17  -21.0196 26002.7 -03502.3 -07.6709 26237.5
 01 11 2013  03 18  -21.0196 26002.7 -03502.2 -07.6708 26237.5
 01 11 2013  03 19  -21.0197 26002.7 -03502.2 -07.6708 26237.5
 01 11 2013  03 20  -21.0196 26002.7 -03502.2 -07.6708 26237.5
 01 11 2013  03 21  -21.0195 26002.7 -03502.2 -07.6708 26237.5
 01 11 2013  03 22  -21.0195 26002.6 -03502.2 -07.6707 26237.4
 01 11 2013  03 23  -21.0193 26002.6 -03502.1 -07.6706 26237.4
 01 11 2013  03 24  -21.0192 26002.5 -03502.1 -07.6707 26237.3
 01 11 2013  03 25  -21.0191 26002.6 -03502.1 -07.6707 26237.4
 01 11 2013  03 26  -21.0191 26002.6 -03502.2 -07.6708 26237.4
 01 11 2013  03 27  -21.0190 26002.7 -03502.2 -07.6708 26237.5
 01 11 2013  03 28  -21.0189 26002.6 -03502.2 -07.6707 26237.4
 01 11 2013  03 29  -21.0189 26002.7 -03502.2 -07.6708 26237.5
 01 11 2013  03 30  -21.0188 26002.9 -03502.3 -07.6710 26237.7
 01 11 2013  03 31  -21.0187 26003.1 -03502.4 -07.6711 26237.9
 01 11 2013  03 32  -21.0185 26003.2 -03502.5 -07.6712 26238.0
 01 11 2013  03 33  -21.0181 26003.3 -03502.5 -07.6713 26238.1
 01 11 2013  03 34  -21.0177 26003.4 -03502.6 -07.6713 26238.3
 01 11 2013  03 35  -21.0171 26003.6 -03502.6 -07.6714 26238.4
 01 11 2013  03 36  -21.0165 26003.7 -03502.7 -07.6715 26238.5
 01 11 2013  03 37  -21.0161 26003.7 -03502.6 -07.6714 26238.5
 01 11 2013  03 38  -21.0159 26003.5 -03502.6 -07.6714 26238.4
 01 11 2013  03 39  -21.0158 26003.4 -03502.6 -07.6713 26238.3
 01 11 2013  03 40  -21.0158 26003.5 -03502.6 -07.6714 26238.4
 01 11 2013  03 41  -21.0154 26003.2 -03502.5 -07.6713 26238.0
 01 11 2013  03 42  -21.0151 26002.5 -03502.2 -07.6707 26237.3
 01 11 2013  03 43  -21.0152 26001.8 -03501.9 -07.6703 26236.6
 01 11 2013  03 44  -21.0158 26001.4 -03501.7 -07.6701 26236.2
 01 11 2013  03 45  -21.0162 26001.3 -03501.7 -07.6700 26236.0
 01 11 2013  03 46  -21.0166 26001.2 -03501.7 -07.6702 26235.9
 01 11 2013  03 47  -21.0170 26001.1 -03501.7 -07.6702 26235.8
 01 11 2013  03 48  -21.0173 26001.1 -03501.8 -07.6703 26235.9
 01 11 2013  03 49  -21.0174 26001.0 -03501.8 -07.6704 26235.8
 01 11 2013  03 50  -21.0173 26001.2 -03501.9 -07.6705 26236.0
 01 11 2013  03 51  -21.0173 26001.6 -03502.2 -07.6710 26236.4
 01 11 2013  03 52  -21.0172 26002.1 -03502.5 -07.6715 26236.9
 01 11 2013  03 53  -21.0171 26002.5 -03502.7 -07.6719 26237.3
 01 11 2013  03 54  -21.0169 26002.8 -03502.9 -07.6722 26237.7
 01 11 2013  03 55  -21.0169 26002.7 -03502.8 -07.6721 26237.6
 01 11 2013  03 56  -21.0170 26002.3 -03502.6 -07.6718 26237.2
 01 11 2013  03 57  -21.0170 26001.9 -03502.4 -07.6715 26236.7
 01 11 2013  03 58  -21.0174 26001.9 -03502.4 -07.6714 26236.7
 01 11 2013  03 59  -21.0178 26002.0 -03502.5 -07.6716 26236.8
 01 11 2013  04 00  -21.0177 26002.1 -03502.5 -07.6717 26236.9
 01 11 2013  04 01  -21.0176 26002.0 -03502.5 -07.6716 26236.8
 01 11 2013  04 02  -21.0176 26001.9 -03502.5 -07.6716 26236.7
 01 11 2013  04 03  -21.0178 26001.8 -03502.5 -07.6716 26236.7
 01 11 2013  04 04  -21.0181 26001.8 -03502.5 -07.6716 26236.6
 01 11 2013  04 05  -21.0185 26001.7 -03502.5 -07.6716 26236.6
 01 11 2013  04 06  -21.0190 26001.7 -03502.5 -07.6716 26236.5
 01 11 2013  04 07  -21.0193 26001.6 -03502.5 -07.6716 26236.5
 01 11 2013  04 08  -21.0194 26001.6 -03502.4 -07.6715 26236.4
 01 11 2013  04 09  -21.0195 26001.5 -03502.3 -07.6714 26236.3
 01 11 2013  04 10  -21.0196 26001.4 -03502.3 -07.6714 26236.2
 01 11 2013  04 11  -21.0196 26001.5 -03502.3 -07.6714 26236.3
 01 11 2013  04 12  -21.0197 26001.6 -03502.4 -07.6715 26236.4
 01 11 2013  04 13  -21.0198 26001.6 -03502.4 -07.6715 26236.4
 01 11 2013  04 14  -21.0196 26001.7 -03502.5 -07.6716 26236.5
 01 11 2013  04 15  -21.0196 26001.5 -03502.4 -07.6716 26236.4
 01 11 2013  04 16  -21.0195 26001.6 -03502.5 -07.6716 26236.4
 01 11 2013  04 17  -21.0195 26001.8 -03502.5 -07.6717 26236.6
 01 11 2013  04 18  -21.0196 26001.9 -03502.6 -07.6719 26236.7
 01 11 2013  04 19  -21.0197 26002.0 -03502.7 -07.6720 26236.9
 01 11 2013  04 20  -21.0199 26002.1 -03502.8 -07.6721 26237.0
 01 11 2013  04 21  -21.0201 26002.2 -03502.8 -07.6722 26237.1
 01 11 2013  04 22  -21.0203 26002.3 -03502.8 -07.6723 26237.2
 01 11 2013  04 23  -21.0204 26002.2 -03502.8 -07.6722 26237.1
 01 11 2013  04 24  -21.0202 26002.3 -03502.8 -07.6721 26237.2
 01 11 2013  04 25  -21.0200 26002.2 -03502.7 -07.6720 26237.0
 01 11 2013  04 26  -21.0198 26002.1 -03502.6 -07.6719 26237.0
 01 11 2013  04 27  -21.0196 26002.0 -03502.6 -07.6718 26236.9
 01 11 2013  04 28  -21.0194 26001.9 -03502.6 -07.6718 26236.8
 01 11 2013  04 29  -21.0195 26001.9 -03502.6 -07.6719 26236.8
 01 11 2013  04 30  -21.0195 26001.9 -03502.6 -07.6719 26236.7
 01 11 2013  04 31  -21.0195 26001.9 -03502.7 -07.6720 26236.8
 01 11 2013  04 32  -21.0196 26002.0 -03502.7 -07.6721 26236.9
 01 11 2013  04 33  -21.0196 26002.1 -03502.8 -07.6722 26237.0
 01 11 2013  04 34  -21.0196 26002.2 -03502.9 -07.6723 26237.1
 01 11 2013  04 35  -21.0194 26002.2 -03502.8 -07.6723 26237.0
 01 11 2013  04 36  -21.0195 26002.2 -03502.9 -07.6723 26237.1
 01 11 2013  04 37  -21.0197 26002.2 -03502.9 -07.6724 26237.0
 01 11 2013  04 38  -21.0195 26002.1 -03502.8 -07.6723 26237.0
 01 11 2013  04 39  -21.0193 26002.0 -03502.8 -07.6722 26236.9
 01 11 2013  04 40  -21.0193 26002.1 -03502.8 -07.6722 26237.0
 01 11 2013  04 41  -21.0193 26002.2 -03502.9 -07.6724 26237.1
 01 11 2013  04 42  -21.0195 26002.3 -03503.0 -07.6726 26237.2
 01 11 2013  04 43  -21.0196 26002.4 -03503.1 -07.6727 26237.3
 01 11 2013  04 44  -21.0195 26002.5 -03503.1 -07.6727 26237.4
 01 11 2013  04 45  -21.0197 26002.5 -03503.1 -07.6728 26237.4
 01 11 2013  04 46  -21.0199 26002.6 -03503.2 -07.6729 26237.5
 01 11 2013  04 47  -21.0202 26002.6 -03503.2 -07.6729 26237.5
 01 11 2013  04 48  -21.0206 26002.7 -03503.2 -07.6730 26237.6
 01 11 2013  04 49  -21.0210 26002.7 -03503.3 -07.6730 26237.7
 01 11 2013  04 50  -21.0213 26002.7 -03503.2 -07.6730 26237.7
 01 11 2013  04 51  -21.0216 26002.7 -03503.2 -07.6729 26237.7
 01 11 2013  04 52  -21.0217 26002.7 -03503.2 -07.6728 26237.6
 01 11 2013  04 53  -21.0217 26002.6 -03503.1 -07.6726 26237.5
 01 11 2013  04 54  -21.0215 26002.5 -03503.0 -07.6726 26237.4
 01 11 2013  04 55  -21.0214 26002.5 -03503.0 -07.6725 26237.4
 01 11 2013  04 56  -21.0213 26002.5 -03503.0 -07.6725 26237.4
 01 11 2013  04 57  -21.0211 26002.5 -03503.0 -07.6725 26237.4
 01 11 2013  04 58  -21.0209 26002.5 -03503.0 -07.6725 26237.4
 01 11 2013  04 59  -21.0206 26002.5 -03503.0 -07.6725 26237.4
 01 11 2013  05 00  -21.0204 26002.5 -03503.0 -07.6726 26237.4
 01 11 2013  05 01  -21.0202 26002.6 -03503.1 -07.6727 26237.5
 01 11 2013  05 02  -21.0200 26002.6 -03503.1 -07.6728 26237.5
 01 11 2013  05 03  -21.0200 26002.7 -03503.2 -07.6730 26237.6
 01 11 2013  05 04  -21.0203 26002.9 -03503.3 -07.6731 26237.8
 01 11 2013  05 05  -21.0203 26003.0 -03503.4 -07.6733 26237.9
 01 11 2013  05 06  -21.0203 26003.0 -03503.4 -07.6734 26238.0
 01 11 2013  05 07  -21.0204 26003.0 -03503.5 -07.6734 26238.0
 01 11 2013  05 08  -21.0204 26003.0 -03503.4 -07.6733 26237.9
 01 11 2013  05 09  -21.0205 26002.9 -03503.4 -07.6733 26237.8
 01 11 2013  05 10  -21.0206 26003.0 -03503.4 -07.6733 26237.9
 01 11 2013  05 11  -21.0207 26003.0 -03503.4 -07.6733 26237.9
 01 11 2013  05 12  -21.0206 26003.0 -03503.5 -07.6734 26238.0
 01 11 2013  05 13  -21.0204 26003.0 -03503.4 -07.6734 26238.0
 01 11 2013  05 14  -21.0203 26003.0 -03503.4 -07.6734 26237.9
