SAO LUIS EMBRACE-03 <216> 1 Min. Reported data

 DD MM YYYY  HH MM   D(Deg)  H(nT)   Z(nT)   I(Deg)   F(nT)

 04 08 2013  00 00  -21.0250 26034.5 -03466.9 -07.5853 26264.3
 04 08 2013  00 01  -21.0250 26034.2 -03466.8 -07.5851 26264.0
 04 08 2013  00 02  -21.0251 26034.0 -03466.7 -07.5850 26263.8
 04 08 2013  00 03  -21.0251 26034.1 -03466.8 -07.5850 26264.0
 04 08 2013  00 04  -21.0250 26034.4 -03466.9 -07.5852 26264.2
 04 08 2013  00 05  -21.0248 26035.1 -03467.2 -07.5858 26264.9
 04 08 2013  00 06  -21.0245 26035.7 -03467.6 -07.5864 26265.7
 04 08 2013  00 07  -21.0244 26036.2 -03467.9 -07.5868 26266.2
 04 08 2013  00 08  -21.0243 26036.7 -03468.1 -07.5872 26266.7
 04 08 2013  00 09  -21.0242 26036.8 -03468.1 -07.5872 26266.7
 04 08 2013  00 10  -21.0242 26036.7 -03468.1 -07.5871 26266.7
 04 08 2013  00 11  -21.0241 26036.8 -03468.1 -07.5870 26266.8
 04 08 2013  00 12  -21.0240 26036.7 -03468.0 -07.5870 26266.7
 04 08 2013  00 13  -21.0241 26036.4 -03467.9 -07.5867 26266.3
 04 08 2013  00 14  -21.0242 26036.1 -03467.7 -07.5864 26266.1
 04 08 2013  00 15  -21.0244 26035.9 -03467.6 -07.5862 26265.8
 04 08 2013  00 16  -21.0243 26035.8 -03467.5 -07.5861 26265.7
 04 08 2013  00 17  -21.0244 26035.8 -03467.5 -07.5861 26265.6
 04 08 2013  00 18  -21.0243 26035.8 -03467.5 -07.5861 26265.7
 04 08 2013  00 19  -21.0242 26035.8 -03467.5 -07.5862 26265.7
 04 08 2013  00 20  -21.0240 26036.1 -03467.7 -07.5864 26266.0
 04 08 2013  00 21  -21.0238 26036.3 -03467.8 -07.5866 26266.2
 04 08 2013  00 22  -21.0236 26036.5 -03467.9 -07.5867 26266.4
 04 08 2013  00 23  -21.0234 26036.6 -03467.9 -07.5868 26266.6
 04 08 2013  00 24  -21.0232 26036.7 -03468.0 -07.5870 26266.7
 04 08 2013  00 25  -21.0232 26036.7 -03468.0 -07.5870 26266.7
 04 08 2013  00 26  -21.0233 26036.8 -03468.1 -07.5870 26266.7
 04 08 2013  00 27  -21.0234 26036.6 -03468.0 -07.5870 26266.6
 04 08 2013  00 28  -21.0236 26036.6 -03468.0 -07.5869 26266.5
 04 08 2013  00 29  -21.0238 26036.5 -03467.9 -07.5869 26266.4
 04 08 2013  00 30  -21.0239 26036.4 -03467.9 -07.5868 26266.4
 04 08 2013  00 31  -21.0239 26036.5 -03467.9 -07.5868 26266.4
 04 08 2013  00 32  -21.0239 26036.6 -03468.0 -07.5869 26266.5
 04 08 2013  00 33  -21.0238 26036.8 -03468.0 -07.5870 26266.7
 04 08 2013  00 34  -21.0237 26037.0 -03468.2 -07.5872 26266.9
 04 08 2013  00 35  -21.0236 26037.1 -03468.2 -07.5873 26267.1
 04 08 2013  00 36  -21.0235 26037.1 -03468.2 -07.5873 26267.1
 04 08 2013  00 37  -21.0234 26037.3 -03468.3 -07.5874 26267.3
 04 08 2013  00 38  -21.0234 26037.4 -03468.4 -07.5875 26267.4
 04 08 2013  00 39  -21.0233 26037.4 -03468.4 -07.5875 26267.4
 04 08 2013  00 40  -21.0233 26037.6 -03468.5 -07.5877 26267.6
 04 08 2013  00 41  -21.0233 26037.6 -03468.5 -07.5877 26267.6
 04 08 2013  00 42  -21.0232 26037.7 -03468.5 -07.5877 26267.7
 04 08 2013  00 43  -21.0231 26037.8 -03468.6 -07.5878 26267.8
 04 08 2013  00 44  -21.0229 26038.0 -03468.6 -07.5879 26268.0
 04 08 2013  00 45  -21.0228 26038.1 -03468.7 -07.5880 26268.2
 04 08 2013  00 46  -21.0228 26038.2 -03468.7 -07.5881 26268.3
 04 08 2013  00 47  -21.0228 26038.4 -03468.8 -07.5882 26268.4
 04 08 2013  00 48  -21.0228 26038.5 -03468.9 -07.5883 26268.6
 04 08 2013  00 49  -21.0228 26038.4 -03468.8 -07.5882 26268.5
 04 08 2013  00 50  -21.0229 26038.4 -03468.8 -07.5881 26268.4
 04 08 2013  00 51  -21.0230 26038.3 -03468.7 -07.5880 26268.3
 04 08 2013  00 52  -21.0232 26038.0 -03468.6 -07.5879 26268.0
 04 08 2013  00 53  -21.0233 26037.7 -03468.5 -07.5876 26267.7
 04 08 2013  00 54  -21.0235 26037.5 -03468.4 -07.5874 26267.5
 04 08 2013  00 55  -21.0236 26037.4 -03468.3 -07.5874 26267.4
 04 08 2013  00 56  -21.0237 26037.2 -03468.3 -07.5873 26267.2
 04 08 2013  00 57  -21.0239 26037.3 -03468.3 -07.5873 26267.2
 04 08 2013  00 58  -21.0240 26037.4 -03468.3 -07.5874 26267.3
 04 08 2013  00 59  -21.0239 26037.4 -03468.4 -07.5876 26267.4
 04 08 2013  01 00  -21.0238 26037.5 -03468.4 -07.5876 26267.5
 04 08 2013  01 01  -21.0237 26037.7 -03468.5 -07.5877 26267.7
 04 08 2013  01 02  -21.0236 26037.7 -03468.5 -07.5878 26267.7
 04 08 2013  01 03  -21.0237 26037.7 -03468.5 -07.5878 26267.7
 04 08 2013  01 04  -21.0238 26037.6 -03468.5 -07.5878 26267.6
 04 08 2013  01 05  -21.0237 26037.6 -03468.5 -07.5877 26267.6
 04 08 2013  01 06  -21.0238 26037.7 -03468.6 -07.5878 26267.7
 04 08 2013  01 07  -21.0239 26037.8 -03468.6 -07.5880 26267.8
 04 08 2013  01 08  -21.0239 26037.7 -03468.6 -07.5879 26267.7
 04 08 2013  01 09  -21.0239 26037.7 -03468.6 -07.5879 26267.8
 04 08 2013  01 10  -21.0237 26037.7 -03468.6 -07.5879 26267.7
 04 08 2013  01 11  -21.0235 26037.7 -03468.6 -07.5879 26267.7
 04 08 2013  01 12  -21.0234 26038.0 -03468.7 -07.5881 26268.0
 04 08 2013  01 13  -21.0235 26038.1 -03468.8 -07.5883 26268.1
 04 08 2013  01 14  -21.0235 26037.9 -03468.7 -07.5882 26267.9
 04 08 2013  01 15  -21.0233 26038.0 -03468.8 -07.5882 26268.1
 04 08 2013  01 16  -21.0229 26038.7 -03469.1 -07.5887 26268.8
 04 08 2013  01 17  -21.0227 26039.0 -03469.3 -07.5890 26269.1
 04 08 2013  01 18  -21.0225 26039.3 -03469.4 -07.5892 26269.4
 04 08 2013  01 19  -21.0225 26039.4 -03469.5 -07.5893 26269.5
 04 08 2013  01 20  -21.0224 26039.6 -03469.5 -07.5894 26269.7
 04 08 2013  01 21  -21.0225 26039.6 -03469.5 -07.5894 26269.7
 04 08 2013  01 22  -21.0225 26039.7 -03469.5 -07.5893 26269.8
 04 08 2013  01 23  -21.0225 26039.8 -03469.5 -07.5893 26269.9
 04 08 2013  01 24  -21.0228 26039.8 -03469.6 -07.5894 26270.0
 04 08 2013  01 25  -21.0228 26040.0 -03469.6 -07.5894 26270.1
 04 08 2013  01 26  -21.0229 26040.0 -03469.6 -07.5894 26270.1
 04 08 2013  01 27  -21.0230 26039.9 -03469.5 -07.5893 26270.0
 04 08 2013  01 28  -21.0230 26040.0 -03469.5 -07.5892 26270.1
 04 08 2013  01 29  -21.0229 26040.1 -03469.5 -07.5893 26270.3
 04 08 2013  01 30  -21.0227 26040.2 -03469.6 -07.5893 26270.4
 04 08 2013  01 31  -21.0225 26040.2 -03469.5 -07.5893 26270.4
 04 08 2013  01 32  -21.0224 26040.3 -03469.6 -07.5893 26270.4
 04 08 2013  01 33  -21.0223 26040.3 -03469.6 -07.5893 26270.5
 04 08 2013  01 34  -21.0222 26040.4 -03469.6 -07.5893 26270.5
 04 08 2013  01 35  -21.0222 26040.4 -03469.6 -07.5893 26270.6
 04 08 2013  01 36  -21.0223 26040.3 -03469.5 -07.5892 26270.4
 04 08 2013  01 37  -21.0222 26040.3 -03469.5 -07.5892 26270.4
 04 08 2013  01 38  -21.0222 26040.3 -03469.5 -07.5891 26270.4
 04 08 2013  01 39  -21.0222 26040.2 -03469.5 -07.5891 26270.3
 04 08 2013  01 40  -21.0220 26040.1 -03469.5 -07.5891 26270.2
 04 08 2013  01 41  -21.0220 26040.1 -03469.4 -07.5890 26270.2
 04 08 2013  01 42  -21.0219 26040.2 -03469.4 -07.5891 26270.3
 04 08 2013  01 43  -21.0219 26040.3 -03469.5 -07.5892 26270.4
 04 08 2013  01 44  -21.0218 26040.5 -03469.6 -07.5894 26270.6
 04 08 2013  01 45  -21.0218 26040.6 -03469.7 -07.5894 26270.7
 04 08 2013  01 46  -21.0218 26040.6 -03469.7 -07.5894 26270.8
 04 08 2013  01 47  -21.0216 26040.6 -03469.6 -07.5894 26270.7
 04 08 2013  01 48  -21.0214 26040.5 -03469.6 -07.5894 26270.7
 04 08 2013  01 49  -21.0213 26040.5 -03469.6 -07.5893 26270.7
 04 08 2013  01 50  -21.0212 26040.6 -03469.7 -07.5894 26270.7
 04 08 2013  01 51  -21.0210 26040.6 -03469.7 -07.5895 26270.7
 04 08 2013  01 52  -21.0210 26040.6 -03469.7 -07.5894 26270.7
 04 08 2013  01 53  -21.0209 26040.6 -03469.7 -07.5895 26270.8
 04 08 2013  01 54  -21.0210 26040.6 -03469.7 -07.5895 26270.8
 04 08 2013  01 55  -21.0211 26040.6 -03469.7 -07.5895 26270.8
 04 08 2013  01 56  -21.0213 26040.6 -03469.8 -07.5896 26270.7
 04 08 2013  01 57  -21.0215 26040.6 -03469.8 -07.5896 26270.7
 04 08 2013  01 58  -21.0216 26040.5 -03469.8 -07.5896 26270.7
 04 08 2013  01 59  -21.0215 26040.6 -03469.8 -07.5896 26270.7
 04 08 2013  02 00  -21.0213 26040.8 -03469.8 -07.5897 26270.9
 04 08 2013  02 01  -21.0211 26041.0 -03469.9 -07.5899 26271.1
 04 08 2013  02 02  -21.0208 26041.1 -03470.0 -07.5900 26271.3
 04 08 2013  02 03  -21.0206 26041.2 -03470.0 -07.5901 26271.4
 04 08 2013  02 04  -21.0204 26041.2 -03470.1 -07.5901 26271.4
 04 08 2013  02 05  -21.0202 26041.2 -03470.1 -07.5901 26271.4
 04 08 2013  02 06  -21.0201 26041.2 -03470.1 -07.5901 26271.4
 04 08 2013  02 07  -21.0199 26041.2 -03470.1 -07.5901 26271.4
 04 08 2013  02 08  -21.0198 26041.1 -03470.0 -07.5900 26271.3
 04 08 2013  02 09  -21.0197 26041.1 -03470.0 -07.5901 26271.3
 04 08 2013  02 10  -21.0196 26040.9 -03470.0 -07.5899 26271.1
 04 08 2013  02 11  -21.0195 26040.9 -03470.0 -07.5900 26271.1
 04 08 2013  02 12  -21.0194 26040.9 -03470.0 -07.5900 26271.1
 04 08 2013  02 13  -21.0193 26040.9 -03470.0 -07.5900 26271.1
 04 08 2013  02 14  -21.0192 26040.8 -03470.0 -07.5900 26271.0
 04 08 2013  02 15  -21.0192 26040.8 -03470.0 -07.5900 26271.0
 04 08 2013  02 16  -21.0192 26040.9 -03470.0 -07.5901 26271.0
 04 08 2013  02 17  -21.0193 26040.8 -03470.1 -07.5902 26271.0
 04 08 2013  02 18  -21.0194 26040.9 -03470.1 -07.5902 26271.0
 04 08 2013  02 19  -21.0193 26040.8 -03470.1 -07.5903 26271.0
 04 08 2013  02 20  -21.0195 26040.8 -03470.0 -07.5902 26271.0
 04 08 2013  02 21  -21.0195 26040.7 -03470.0 -07.5902 26270.9
 04 08 2013  02 22  -21.0195 26040.7 -03470.0 -07.5902 26270.9
 04 08 2013  02 23  -21.0195 26040.6 -03470.0 -07.5901 26270.8
 04 08 2013  02 24  -21.0193 26040.6 -03470.0 -07.5901 26270.8
 04 08 2013  02 25  -21.0192 26040.5 -03470.0 -07.5901 26270.7
 04 08 2013  02 26  -21.0189 26040.5 -03470.0 -07.5901 26270.7
 04 08 2013  02 27  -21.0187 26040.5 -03469.9 -07.5900 26270.6
 04 08 2013  02 28  -21.0184 26040.4 -03469.9 -07.5901 26270.6
 04 08 2013  02 29  -21.0182 26040.5 -03470.0 -07.5902 26270.7
 04 08 2013  02 30  -21.0180 26040.6 -03470.1 -07.5903 26270.8
 04 08 2013  02 31  -21.0179 26040.7 -03470.2 -07.5905 26270.9
 04 08 2013  02 32  -21.0177 26040.7 -03470.2 -07.5906 26270.9
 04 08 2013  02 33  -21.0177 26040.7 -03470.2 -07.5906 26270.9
 04 08 2013  02 34  -21.0176 26040.7 -03470.2 -07.5906 26270.9
 04 08 2013  02 35  -21.0173 26040.9 -03470.3 -07.5907 26271.1
 04 08 2013  02 36  -21.0171 26040.9 -03470.4 -07.5908 26271.1
 04 08 2013  02 37  -21.0170 26041.0 -03470.4 -07.5909 26271.2
 04 08 2013  02 38  -21.0169 26041.1 -03470.5 -07.5911 26271.3
 04 08 2013  02 39  -21.0168 26041.3 -03470.6 -07.5912 26271.5
 04 08 2013  02 40  -21.0168 26041.4 -03470.7 -07.5913 26271.6
 04 08 2013  02 41  -21.0168 26041.4 -03470.7 -07.5914 26271.7
 04 08 2013  02 42  -21.0169 26041.4 -03470.7 -07.5913 26271.6
 04 08 2013  02 43  -21.0169 26041.4 -03470.7 -07.5913 26271.6
 04 08 2013  02 44  -21.0168 26041.4 -03470.7 -07.5914 26271.7
 04 08 2013  02 45  -21.0167 26041.4 -03470.7 -07.5913 26271.7
 04 08 2013  02 46  -21.0162 26041.6 -03470.7 -07.5915 26271.9
 04 08 2013  02 47  -21.0159 26041.7 -03470.8 -07.5915 26272.0
 04 08 2013  02 48  -21.0158 26041.7 -03470.8 -07.5915 26271.9
 04 08 2013  02 49  -21.0159 26041.4 -03470.7 -07.5914 26271.7
 04 08 2013  02 50  -21.0160 26041.3 -03470.6 -07.5912 26271.5
 04 08 2013  02 51  -21.0162 26041.2 -03470.6 -07.5912 26271.4
 04 08 2013  02 52  -21.0163 26041.0 -03470.5 -07.5911 26271.3
 04 08 2013  02 53  -21.0163 26041.0 -03470.5 -07.5911 26271.3
 04 08 2013  02 54  -21.0163 26041.0 -03470.5 -07.5910 26271.2
 04 08 2013  02 55  -21.0162 26041.0 -03470.5 -07.5910 26271.2
 04 08 2013  02 56  -21.0160 26041.0 -03470.5 -07.5911 26271.3
 04 08 2013  02 57  -21.0160 26041.0 -03470.5 -07.5911 26271.3
 04 08 2013  02 58  -21.0159 26041.0 -03470.5 -07.5911 26271.3
 04 08 2013  02 59  -21.0157 26041.0 -03470.5 -07.5912 26271.2
 04 08 2013  03 00  -21.0156 26040.9 -03470.5 -07.5911 26271.1
 04 08 2013  03 01  -21.0155 26040.9 -03470.5 -07.5911 26271.2
 04 08 2013  03 02  -21.0153 26040.9 -03470.5 -07.5912 26271.2
 04 08 2013  03 03  -21.0153 26040.9 -03470.5 -07.5912 26271.1
 04 08 2013  03 04  -21.0151 26040.9 -03470.5 -07.5912 26271.1
 04 08 2013  03 05  -21.0151 26040.9 -03470.5 -07.5912 26271.1
 04 08 2013  03 06  -21.0151 26040.9 -03470.6 -07.5912 26271.1
 04 08 2013  03 07  -21.0151 26041.0 -03470.6 -07.5913 26271.2
 04 08 2013  03 08  -21.0151 26041.0 -03470.6 -07.5914 26271.3
 04 08 2013  03 09  -21.0152 26041.0 -03470.7 -07.5915 26271.3
 04 08 2013  03 10  -21.0151 26041.0 -03470.7 -07.5914 26271.2
 04 08 2013  03 11  -21.0151 26040.9 -03470.6 -07.5914 26271.2
 04 08 2013  03 12  -21.0152 26040.8 -03470.6 -07.5914 26271.0
 04 08 2013  03 13  -21.0151 26040.7 -03470.6 -07.5913 26271.0
 04 08 2013  03 14  -21.0151 26040.6 -03470.5 -07.5913 26270.9
 04 08 2013  03 15  -21.0152 26040.4 -03470.4 -07.5911 26270.7
 04 08 2013  03 16  -21.0152 26040.4 -03470.4 -07.5911 26270.6
 04 08 2013  03 17  -21.0152 26040.1 -03470.3 -07.5909 26270.3
 04 08 2013  03 18  -21.0153 26039.9 -03470.2 -07.5908 26270.1
 04 08 2013  03 19  -21.0154 26039.8 -03470.2 -07.5908 26270.0
 04 08 2013  03 20  -21.0153 26039.7 -03470.2 -07.5908 26269.9
 04 08 2013  03 21  -21.0153 26039.7 -03470.2 -07.5909 26270.0
 04 08 2013  03 22  -21.0154 26039.6 -03470.2 -07.5909 26269.8
 04 08 2013  03 23  -21.0153 26039.6 -03470.2 -07.5909 26269.8
 04 08 2013  03 24  -21.0151 26039.7 -03470.3 -07.5910 26269.9
 04 08 2013  03 25  -21.0150 26039.6 -03470.3 -07.5910 26269.9
 04 08 2013  03 26  -21.0148 26039.7 -03470.4 -07.5911 26270.0
 04 08 2013  03 27  -21.0148 26039.7 -03470.3 -07.5911 26269.9
 04 08 2013  03 28  -21.0147 26039.8 -03470.4 -07.5913 26270.0
 04 08 2013  03 29  -21.0147 26039.6 -03470.4 -07.5912 26269.8
 04 08 2013  03 30  -21.0144 26039.6 -03470.3 -07.5911 26269.8
 04 08 2013  03 31  -21.0142 26039.6 -03470.4 -07.5912 26269.8
 04 08 2013  03 32  -21.0140 26039.7 -03470.4 -07.5913 26270.0
 04 08 2013  03 33  -21.0138 26039.9 -03470.5 -07.5915 26270.1
 04 08 2013  03 34  -21.0138 26039.9 -03470.6 -07.5917 26270.2
 04 08 2013  03 35  -21.0140 26039.9 -03470.6 -07.5917 26270.2
 04 08 2013  03 36  -21.0140 26040.0 -03470.7 -07.5918 26270.3
 04 08 2013  03 37  -21.0143 26039.9 -03470.7 -07.5919 26270.2
 04 08 2013  03 38  -21.0147 26039.7 -03470.6 -07.5917 26269.9
 04 08 2013  03 39  -21.0147 26039.8 -03470.6 -07.5917 26270.0
 04 08 2013  03 40  -21.0148 26039.8 -03470.7 -07.5918 26270.1
 04 08 2013  03 41  -21.0149 26039.6 -03470.6 -07.5917 26269.9
 04 08 2013  03 42  -21.0150 26039.7 -03470.6 -07.5917 26269.9
 04 08 2013  03 43  -21.0150 26039.4 -03470.5 -07.5915 26269.6
 04 08 2013  03 44  -21.0149 26039.3 -03470.4 -07.5914 26269.5
 04 08 2013  03 45  -21.0149 26039.2 -03470.4 -07.5915 26269.5
 04 08 2013  03 46  -21.0149 26039.3 -03470.5 -07.5916 26269.6
 04 08 2013  03 47  -21.0148 26039.4 -03470.6 -07.5917 26269.7
 04 08 2013  03 48  -21.0148 26039.5 -03470.6 -07.5918 26269.8
 04 08 2013  03 49  -21.0149 26039.3 -03470.5 -07.5917 26269.5
 04 08 2013  03 50  -21.0149 26039.2 -03470.5 -07.5917 26269.5
 04 08 2013  03 51  -21.0152 26039.2 -03470.6 -07.5918 26269.5
 04 08 2013  03 52  -21.0153 26039.1 -03470.6 -07.5918 26269.4
 04 08 2013  03 53  -21.0154 26039.2 -03470.6 -07.5919 26269.4
 04 08 2013  03 54  -21.0156 26039.0 -03470.6 -07.5919 26269.3
 04 08 2013  03 55  -21.0155 26039.0 -03470.6 -07.5918 26269.2
 04 08 2013  03 56  -21.0155 26038.9 -03470.6 -07.5919 26269.2
 04 08 2013  03 57  -21.0154 26038.8 -03470.6 -07.5918 26269.1
 04 08 2013  03 58  -21.0156 26038.7 -03470.5 -07.5918 26269.0
 04 08 2013  03 59  -21.0154 26038.5 -03470.4 -07.5917 26268.7
 04 08 2013  04 00  -21.0152 26038.6 -03470.5 -07.5918 26268.8
 04 08 2013  04 01  -21.0152 26038.7 -03470.6 -07.5920 26269.0
 04 08 2013  04 02  -21.0151 26038.7 -03470.6 -07.5921 26269.0
 04 08 2013  04 03  -21.0151 26038.9 -03470.8 -07.5923 26269.2
 04 08 2013  04 04  -21.0150 26038.8 -03470.8 -07.5924 26269.1
 04 08 2013  04 05  -21.0150 26038.8 -03470.8 -07.5925 26269.1
 04 08 2013  04 06  -21.0150 26039.0 -03470.9 -07.5926 26269.3
 04 08 2013  04 07  -21.0150 26039.2 -03471.1 -07.5929 26269.5
 04 08 2013  04 08  -21.0148 26039.2 -03471.1 -07.5930 26269.6
 04 08 2013  04 09  -21.0146 26039.5 -03471.2 -07.5931 26269.8
 04 08 2013  04 10  -21.0145 26039.6 -03471.3 -07.5933 26269.9
 04 08 2013  04 11  -21.0146 26039.5 -03471.3 -07.5932 26269.8
 04 08 2013  04 12  -21.0146 26039.5 -03471.3 -07.5932 26269.8
 04 08 2013  04 13  -21.0146 26039.4 -03471.3 -07.5932 26269.8
 04 08 2013  04 14  -21.0145 26039.7 -03471.4 -07.5934 26270.1
 04 08 2013  04 15  -21.0144 26039.8 -03471.5 -07.5936 26270.2
 04 08 2013  04 16  -21.0144 26039.9 -03471.5 -07.5936 26270.3
 04 08 2013  04 17  -21.0143 26040.0 -03471.6 -07.5937 26270.4
 04 08 2013  04 18  -21.0143 26039.9 -03471.5 -07.5936 26270.3
 04 08 2013  04 19  -21.0140 26040.1 -03471.6 -07.5937 26270.5
 04 08 2013  04 20  -21.0135 26040.2 -03471.7 -07.5938 26270.6
 04 08 2013  04 21  -21.0131 26040.4 -03471.7 -07.5939 26270.8
 04 08 2013  04 22  -21.0128 26040.5 -03471.8 -07.5940 26271.0
 04 08 2013  04 23  -21.0126 26040.7 -03471.9 -07.5942 26271.2
 04 08 2013  04 24  -21.0124 26040.9 -03471.9 -07.5942 26271.4
 04 08 2013  04 25  -21.0121 26041.3 -03472.1 -07.5945 26271.7
 04 08 2013  04 26  -21.0117 26041.6 -03472.3 -07.5947 26272.1
 04 08 2013  04 27  -21.0115 26041.9 -03472.4 -07.5949 26272.4
 04 08 2013  04 28  -21.0111 26042.2 -03472.5 -07.5951 26272.7
 04 08 2013  04 29  -21.0110 26042.4 -03472.6 -07.5953 26272.9
 04 08 2013  04 30  -21.0108 26042.5 -03472.6 -07.5953 26273.0
 04 08 2013  04 31  -21.0107 26042.7 -03472.7 -07.5953 26273.2
 04 08 2013  04 32  -21.0105 26042.9 -03472.7 -07.5953 26273.4
 04 08 2013  04 33  -21.0104 26042.9 -03472.7 -07.5953 26273.4
 04 08 2013  04 34  -21.0103 26042.9 -03472.7 -07.5953 26273.5
 04 08 2013  04 35  -21.0103 26043.0 -03472.7 -07.5953 26273.5
 04 08 2013  04 36  -21.0103 26043.0 -03472.7 -07.5952 26273.5
 04 08 2013  04 37  -21.0104 26043.0 -03472.7 -07.5952 26273.5
 04 08 2013  04 38  -21.0105 26043.0 -03472.6 -07.5951 26273.5
 04 08 2013  04 39  -21.0106 26042.8 -03472.5 -07.5949 26273.3
 04 08 2013  04 40  -21.0107 26042.7 -03472.4 -07.5947 26273.2
 04 08 2013  04 41  -21.0109 26042.6 -03472.3 -07.5946 26273.1
 04 08 2013  04 42  -21.0110 26042.5 -03472.3 -07.5945 26273.0
 04 08 2013  04 43  -21.0110 26042.5 -03472.3 -07.5945 26273.0
 04 08 2013  04 44  -21.0111 26042.5 -03472.2 -07.5944 26273.0
 04 08 2013  04 45  -21.0110 26042.4 -03472.2 -07.5943 26272.9
 04 08 2013  04 46  -21.0110 26042.3 -03472.1 -07.5942 26272.8
 04 08 2013  04 47  -21.0109 26042.3 -03472.1 -07.5942 26272.7
 04 08 2013  04 48  -21.0109 26042.3 -03472.1 -07.5941 26272.7
 04 08 2013  04 49  -21.0107 26042.2 -03472.1 -07.5942 26272.7
 04 08 2013  04 50  -21.0106 26042.3 -03472.1 -07.5942 26272.8
 04 08 2013  04 51  -21.0104 26042.4 -03472.1 -07.5942 26272.8
 04 08 2013  04 52  -21.0103 26042.4 -03472.2 -07.5943 26272.9
 04 08 2013  04 53  -21.0101 26042.4 -03472.2 -07.5943 26272.9
 04 08 2013  04 54  -21.0100 26042.5 -03472.2 -07.5944 26272.9
 04 08 2013  04 55  -21.0100 26042.5 -03472.2 -07.5944 26273.0
 04 08 2013  04 56  -21.0099 26042.5 -03472.2 -07.5944 26272.9
 04 08 2013  04 57  -21.0099 26042.5 -03472.2 -07.5944 26273.0
 04 08 2013  04 58  -21.0099 26042.5 -03472.2 -07.5944 26272.9
 04 08 2013  04 59  -21.0101 26042.4 -03472.2 -07.5943 26272.8
 04 08 2013  05 00  -21.0103 26042.3 -03472.1 -07.5943 26272.7
 04 08 2013  05 01  -21.0105 26042.2 -03472.1 -07.5942 26272.6
 04 08 2013  05 02  -21.0106 26042.1 -03472.1 -07.5942 26272.6
 04 08 2013  05 03  -21.0106 26042.2 -03472.1 -07.5942 26272.6
 04 08 2013  05 04  -21.0106 26042.2 -03472.1 -07.5942 26272.7
 04 08 2013  05 05  -21.0107 26042.2 -03472.1 -07.5942 26272.7
 04 08 2013  05 06  -21.0107 26042.2 -03472.1 -07.5942 26272.7
 04 08 2013  05 07  -21.0107 26042.3 -03472.1 -07.5942 26272.8
 04 08 2013  05 08  -21.0106 26042.4 -03472.2 -07.5943 26272.9
 04 08 2013  05 09  -21.0106 26042.6 -03472.2 -07.5944 26273.0
 04 08 2013  05 10  -21.0106 26042.6 -03472.3 -07.5944 26273.0
 04 08 2013  05 11  -21.0106 26042.6 -03472.3 -07.5944 26273.0
 04 08 2013  05 12  -21.0106 26042.6 -03472.2 -07.5944 26273.0
 04 08 2013  05 13  -21.0105 26042.7 -03472.3 -07.5945 26273.1
 04 08 2013  05 14  -21.0106 26042.6 -03472.2 -07.5944 26273.1
