SAO LUIS EMBRACE-03 <282> 1 Min. Reported data

 DD MM YYYY  HH MM   D(Deg)  H(nT)   Z(nT)   I(Deg)   F(nT)

 09 10 2013  00 00  -21.0362 25947.9 -03480.6 -07.6400 26180.4
 09 10 2013  00 01  -21.0315 25948.2 -03480.9 -07.6404 26180.6
 09 10 2013  00 02  -21.0285 25948.5 -03481.4 -07.6414 26181.0
 09 10 2013  00 03  -21.0291 25948.2 -03481.9 -07.6427 26180.8
 09 10 2013  00 04  -21.0323 25946.6 -03481.9 -07.6430 26179.2
 09 10 2013  00 05  -21.0353 25944.9 -03481.4 -07.6426 26177.5
 09 10 2013  00 06  -21.0375 25944.2 -03481.4 -07.6426 26176.7
 09 10 2013  00 07  -21.0391 25944.3 -03481.6 -07.6431 26176.9
 09 10 2013  00 08  -21.0400 25944.5 -03482.0 -07.6440 26177.1
 09 10 2013  00 09  -21.0400 25942.9 -03481.5 -07.6434 26175.5
 09 10 2013  00 10  -21.0395 25942.8 -03481.5 -07.6433 26175.4
 09 10 2013  00 11  -21.0392 25943.5 -03482.1 -07.6444 26176.2
 09 10 2013  00 12  -21.0393 25942.8 -03482.0 -07.6445 26175.5
 09 10 2013  00 13  -21.0415 25941.2 -03481.6 -07.6440 26173.7
 09 10 2013  00 14  -21.0451 25936.4 -03479.6 -07.6412 26168.8
 09 10 2013  00 15  -21.0490 25931.3 -03477.1 -07.6372 26163.4
 09 10 2013  00 16  -21.0510 25928.8 -03475.7 -07.6349 26160.7
 09 10 2013  00 17  -21.0518 25929.1 -03476.0 -07.6354 26161.0
 09 10 2013  00 18  -21.0512 25929.2 -03476.5 -07.6366 26161.2
 09 10 2013  00 19  -21.0499 25930.5 -03477.5 -07.6383 26162.6
 09 10 2013  00 20  -21.0488 25932.6 -03479.0 -07.6409 26164.9
 09 10 2013  00 21  -21.0478 25934.2 -03480.3 -07.6432 26166.7
 09 10 2013  00 22  -21.0477 25934.7 -03481.0 -07.6447 26167.3
 09 10 2013  00 23  -21.0482 25934.9 -03481.4 -07.6454 26167.5
 09 10 2013  00 24  -21.0494 25935.0 -03481.6 -07.6458 26167.7
 09 10 2013  00 25  -21.0507 25936.0 -03482.1 -07.6467 26168.7
 09 10 2013  00 26  -21.0515 25937.5 -03483.0 -07.6481 26170.3
 09 10 2013  00 27  -21.0536 25937.4 -03483.3 -07.6488 26170.3
 09 10 2013  00 28  -21.0563 25936.5 -03482.9 -07.6481 26169.3
 09 10 2013  00 29  -21.0582 25935.6 -03482.3 -07.6473 26168.3
 09 10 2013  00 30  -21.0597 25933.4 -03481.1 -07.6453 26166.0
 09 10 2013  00 31  -21.0604 25932.0 -03480.3 -07.6438 26164.5
 09 10 2013  00 32  -21.0602 25931.2 -03479.7 -07.6429 26163.6
 09 10 2013  00 33  -21.0596 25931.4 -03479.9 -07.6431 26163.8
 09 10 2013  00 34  -21.0574 25933.0 -03480.8 -07.6447 26165.5
 09 10 2013  00 35  -21.0551 25934.6 -03481.9 -07.6467 26167.3
 09 10 2013  00 36  -21.0542 25935.0 -03482.5 -07.6477 26167.7
 09 10 2013  00 37  -21.0537 25935.3 -03482.8 -07.6483 26168.1
 09 10 2013  00 38  -21.0541 25934.9 -03482.8 -07.6485 26167.7
 09 10 2013  00 39  -21.0547 25934.2 -03482.5 -07.6481 26166.9
 09 10 2013  00 40  -21.0544 25933.9 -03482.4 -07.6480 26166.6
 09 10 2013  00 41  -21.0537 25933.6 -03482.3 -07.6478 26166.3
 09 10 2013  00 42  -21.0526 25933.4 -03482.5 -07.6482 26166.2
 09 10 2013  00 43  -21.0518 25932.8 -03482.2 -07.6477 26165.6
 09 10 2013  00 44  -21.0506 25934.3 -03483.0 -07.6492 26167.1
 09 10 2013  00 45  -21.0493 25936.9 -03484.7 -07.6519 26169.9
 09 10 2013  00 46  -21.0476 25939.5 -03486.1 -07.6543 26172.7
 09 10 2013  00 47  -21.0459 25943.5 -03488.4 -07.6581 26176.9
 09 10 2013  00 48  -21.0455 25945.1 -03489.4 -07.6599 26178.7
 09 10 2013  00 49  -21.0443 25947.4 -03490.5 -07.6615 26181.1
 09 10 2013  00 50  -21.0439 25948.8 -03491.1 -07.6625 26182.6
 09 10 2013  00 51  -21.0448 25950.1 -03491.7 -07.6633 26184.0
 09 10 2013  00 52  -21.0466 25951.1 -03492.1 -07.6638 26185.0
 09 10 2013  00 53  -21.0483 25951.2 -03491.9 -07.6634 26185.1
 09 10 2013  00 54  -21.0499 25951.9 -03491.9 -07.6633 26185.8
 09 10 2013  00 55  -21.0516 25952.6 -03491.9 -07.6631 26186.5
 09 10 2013  00 56  -21.0536 25952.1 -03491.5 -07.6623 26186.0
 09 10 2013  00 57  -21.0549 25952.3 -03491.2 -07.6615 26186.0
 09 10 2013  00 58  -21.0562 25952.9 -03491.2 -07.6614 26186.7
 09 10 2013  00 59  -21.0576 25953.4 -03491.1 -07.6612 26187.1
 09 10 2013  01 00  -21.0589 25953.7 -03491.1 -07.6609 26187.5
 09 10 2013  01 01  -21.0598 25955.1 -03491.4 -07.6612 26188.9
 09 10 2013  01 02  -21.0601 25956.5 -03491.9 -07.6619 26190.3
 09 10 2013  01 03  -21.0608 25957.0 -03491.9 -07.6618 26190.8
 09 10 2013  01 04  -21.0613 25958.0 -03492.1 -07.6620 26191.8
 09 10 2013  01 05  -21.0612 25960.0 -03492.8 -07.6628 26193.9
 09 10 2013  01 06  -21.0608 25963.0 -03493.9 -07.6644 26197.0
 09 10 2013  01 07  -21.0609 25965.4 -03495.1 -07.6662 26199.6
 09 10 2013  01 08  -21.0619 25964.7 -03494.7 -07.6655 26198.8
 09 10 2013  01 09  -21.0638 25962.4 -03493.2 -07.6631 26196.3
 09 10 2013  01 10  -21.0655 25960.3 -03491.7 -07.6604 26194.0
 09 10 2013  01 11  -21.0652 25959.7 -03490.9 -07.6587 26193.3
 09 10 2013  01 12  -21.0650 25959.7 -03490.5 -07.6580 26193.3
 09 10 2013  01 13  -21.0653 25959.9 -03490.5 -07.6579 26193.5
 09 10 2013  01 14  -21.0649 25960.4 -03490.6 -07.6580 26194.0
 09 10 2013  01 15  -21.0643 25960.4 -03490.5 -07.6577 26194.0
 09 10 2013  01 16  -21.0631 25960.5 -03490.3 -07.6573 26194.0
 09 10 2013  01 17  -21.0626 25960.0 -03490.0 -07.6568 26193.5
 09 10 2013  01 18  -21.0624 25959.6 -03489.7 -07.6563 26193.1
 09 10 2013  01 19  -21.0622 25959.1 -03489.5 -07.6559 26192.6
 09 10 2013  01 20  -21.0617 25958.2 -03489.0 -07.6551 26191.6
 09 10 2013  01 21  -21.0612 25958.0 -03488.7 -07.6546 26191.4
 09 10 2013  01 22  -21.0612 25958.4 -03488.9 -07.6549 26191.8
 09 10 2013  01 23  -21.0616 25958.6 -03489.1 -07.6552 26192.0
 09 10 2013  01 24  -21.0618 25958.7 -03489.1 -07.6552 26192.1
 09 10 2013  01 25  -21.0618 25958.8 -03489.2 -07.6554 26192.3
 09 10 2013  01 26  -21.0614 25959.0 -03489.2 -07.6554 26192.5
 09 10 2013  01 27  -21.0613 25959.1 -03489.2 -07.6553 26192.5
 09 10 2013  01 28  -21.0603 25959.2 -03489.2 -07.6553 26192.6
 09 10 2013  01 29  -21.0595 25958.6 -03488.9 -07.6547 26192.0
 09 10 2013  01 30  -21.0587 25958.2 -03488.6 -07.6543 26191.6
 09 10 2013  01 31  -21.0583 25958.0 -03488.5 -07.6541 26191.4
 09 10 2013  01 32  -21.0582 25958.3 -03488.6 -07.6543 26191.6
 09 10 2013  01 33  -21.0582 25958.8 -03489.0 -07.6549 26192.2
 09 10 2013  01 34  -21.0586 25959.1 -03489.2 -07.6553 26192.5
 09 10 2013  01 35  -21.0588 25959.9 -03489.6 -07.6559 26193.3
 09 10 2013  01 36  -21.0589 25960.6 -03490.0 -07.6566 26194.1
 09 10 2013  01 37  -21.0587 25961.4 -03490.4 -07.6572 26195.0
 09 10 2013  01 38  -21.0581 25962.3 -03490.7 -07.6577 26195.9
 09 10 2013  01 39  -21.0577 25962.5 -03490.9 -07.6579 26196.1
 09 10 2013  01 40  -21.0572 25962.9 -03490.9 -07.6579 26196.5
 09 10 2013  01 41  -21.0576 25963.5 -03491.2 -07.6583 26197.1
 09 10 2013  01 42  -21.0577 25964.2 -03491.5 -07.6588 26197.9
 09 10 2013  01 43  -21.0578 25964.5 -03491.6 -07.6590 26198.3
 09 10 2013  01 44  -21.0581 25964.8 -03491.7 -07.6590 26198.6
 09 10 2013  01 45  -21.0584 25964.7 -03491.6 -07.6588 26198.4
 09 10 2013  01 46  -21.0583 25964.8 -03491.5 -07.6586 26198.5
 09 10 2013  01 47  -21.0581 25964.9 -03491.4 -07.6583 26198.6
 09 10 2013  01 48  -21.0578 25965.4 -03491.5 -07.6584 26199.1
 09 10 2013  01 49  -21.0578 25965.8 -03491.7 -07.6587 26199.5
 09 10 2013  01 50  -21.0581 25966.2 -03491.9 -07.6590 26199.9
 09 10 2013  01 51  -21.0585 25966.4 -03492.0 -07.6592 26200.2
 09 10 2013  01 52  -21.0590 25966.4 -03492.0 -07.6592 26200.2
 09 10 2013  01 53  -21.0593 25966.4 -03491.8 -07.6589 26200.1
 09 10 2013  01 54  -21.0589 25966.5 -03491.7 -07.6587 26200.2
 09 10 2013  01 55  -21.0583 25966.4 -03491.6 -07.6585 26200.1
 09 10 2013  01 56  -21.0576 25966.3 -03491.6 -07.6583 26200.0
 09 10 2013  01 57  -21.0571 25966.2 -03491.5 -07.6582 26199.9
 09 10 2013  01 58  -21.0566 25966.4 -03491.5 -07.6582 26200.0
 09 10 2013  01 59  -21.0561 25966.6 -03491.7 -07.6585 26200.3
 09 10 2013  02 00  -21.0557 25966.8 -03491.8 -07.6587 26200.5
 09 10 2013  02 01  -21.0556 25967.0 -03491.9 -07.6589 26200.7
 09 10 2013  02 02  -21.0557 25967.5 -03492.2 -07.6593 26201.2
 09 10 2013  02 03  -21.0554 25968.4 -03492.6 -07.6600 26202.2
 09 10 2013  02 04  -21.0550 25968.9 -03492.9 -07.6605 26202.8
 09 10 2013  02 05  -21.0544 25969.6 -03493.2 -07.6609 26203.5
 09 10 2013  02 06  -21.0546 25970.0 -03493.4 -07.6612 26203.9
 09 10 2013  02 07  -21.0552 25970.3 -03493.5 -07.6613 26204.2
 09 10 2013  02 08  -21.0556 25971.3 -03493.9 -07.6620 26205.3
 09 10 2013  02 09  -21.0561 25972.0 -03494.2 -07.6623 26205.9
 09 10 2013  02 10  -21.0564 25972.6 -03494.3 -07.6625 26206.6
 09 10 2013  02 11  -21.0560 25973.1 -03494.4 -07.6625 26207.1
 09 10 2013  02 12  -21.0553 25973.4 -03494.4 -07.6623 26207.4
 09 10 2013  02 13  -21.0542 25973.9 -03494.4 -07.6622 26207.9
 09 10 2013  02 14  -21.0527 25974.4 -03494.5 -07.6622 26208.4
 09 10 2013  02 15  -21.0514 25975.3 -03494.7 -07.6626 26209.3
 09 10 2013  02 16  -21.0513 25976.2 -03495.1 -07.6632 26210.3
 09 10 2013  02 17  -21.0517 25976.6 -03495.3 -07.6634 26210.7
 09 10 2013  02 18  -21.0505 25976.0 -03494.9 -07.6627 26210.1
 09 10 2013  02 19  -21.0478 25973.7 -03493.4 -07.6603 26207.5
 09 10 2013  02 20  -21.0459 25971.2 -03491.9 -07.6577 26204.9
 09 10 2013  02 21  -21.0458 25970.0 -03491.3 -07.6566 26203.6
 09 10 2013  02 22  -21.0461 25970.2 -03491.5 -07.6571 26203.9
 09 10 2013  02 23  -21.0465 25971.3 -03492.3 -07.6584 26205.1
 09 10 2013  02 24  -21.0468 25971.9 -03492.8 -07.6595 26205.7
 09 10 2013  02 25  -21.0474 25971.4 -03492.8 -07.6594 26205.2
 09 10 2013  02 26  -21.0482 25970.7 -03492.5 -07.6591 26204.5
 09 10 2013  02 27  -21.0493 25970.0 -03492.2 -07.6586 26203.8
 09 10 2013  02 28  -21.0499 25970.5 -03492.5 -07.6591 26204.3
 09 10 2013  02 29  -21.0504 25970.9 -03492.7 -07.6595 26204.7
 09 10 2013  02 30  -21.0508 25971.2 -03493.0 -07.6600 26205.1
 09 10 2013  02 31  -21.0510 25971.0 -03492.9 -07.6600 26204.9
 09 10 2013  02 32  -21.0505 25970.2 -03492.5 -07.6592 26204.0
 09 10 2013  02 33  -21.0498 25969.6 -03492.1 -07.6586 26203.4
 09 10 2013  02 34  -21.0493 25969.5 -03492.1 -07.6585 26203.2
 09 10 2013  02 35  -21.0488 25969.7 -03492.2 -07.6587 26203.4
 09 10 2013  02 36  -21.0480 25969.9 -03492.3 -07.6589 26203.6
 09 10 2013  02 37  -21.0474 25969.9 -03492.4 -07.6590 26203.7
 09 10 2013  02 38  -21.0469 25969.8 -03492.4 -07.6591 26203.6
 09 10 2013  02 39  -21.0463 25969.7 -03492.3 -07.6590 26203.4
 09 10 2013  02 40  -21.0457 25969.9 -03492.5 -07.6593 26203.7
 09 10 2013  02 41  -21.0457 25970.1 -03492.7 -07.6597 26203.9
 09 10 2013  02 42  -21.0457 25970.4 -03492.9 -07.6601 26204.2
 09 10 2013  02 43  -21.0461 25971.1 -03493.3 -07.6608 26205.0
 09 10 2013  02 44  -21.0466 25971.5 -03493.6 -07.6613 26205.4
 09 10 2013  02 45  -21.0459 25971.7 -03493.7 -07.6614 26205.6
 09 10 2013  02 46  -21.0449 25971.3 -03493.4 -07.6609 26205.2
 09 10 2013  02 47  -21.0443 25971.2 -03493.3 -07.6606 26205.1
 09 10 2013  02 48  -21.0435 25971.3 -03493.3 -07.6607 26205.2
 09 10 2013  02 49  -21.0428 25971.4 -03493.4 -07.6608 26205.3
 09 10 2013  02 50  -21.0423 25971.5 -03493.5 -07.6609 26205.4
 09 10 2013  02 51  -21.0420 25971.4 -03493.5 -07.6610 26205.3
 09 10 2013  02 52  -21.0418 25971.6 -03493.6 -07.6611 26205.5
 09 10 2013  02 53  -21.0418 25971.6 -03493.6 -07.6613 26205.6
 09 10 2013  02 54  -21.0416 25971.6 -03493.6 -07.6612 26205.5
 09 10 2013  02 55  -21.0413 25971.2 -03493.4 -07.6609 26205.1
 09 10 2013  02 56  -21.0406 25971.1 -03493.3 -07.6606 26204.9
 09 10 2013  02 57  -21.0400 25970.9 -03493.2 -07.6604 26204.8
 09 10 2013  02 58  -21.0399 25970.6 -03493.0 -07.6602 26204.5
 09 10 2013  02 59  -21.0400 25970.6 -03493.0 -07.6602 26204.5
 09 10 2013  03 00  -21.0411 25970.6 -03493.0 -07.6602 26204.5
 09 10 2013  03 01  -21.0432 25970.7 -03493.1 -07.6605 26204.6
 09 10 2013  03 02  -21.0455 25970.6 -03493.1 -07.6604 26204.5
 09 10 2013  03 03  -21.0467 25970.0 -03492.7 -07.6598 26203.8
 09 10 2013  03 04  -21.0462 25968.7 -03492.0 -07.6585 26202.4
 09 10 2013  03 05  -21.0435 25967.0 -03490.9 -07.6568 26200.6
 09 10 2013  03 06  -21.0412 25965.8 -03490.2 -07.6555 26199.4
 09 10 2013  03 07  -21.0418 25965.6 -03490.2 -07.6557 26199.2
 09 10 2013  03 08  -21.0445 25965.4 -03490.5 -07.6563 26199.0
 09 10 2013  03 09  -21.0477 25964.9 -03490.6 -07.6567 26198.5
 09 10 2013  03 10  -21.0496 25964.5 -03490.5 -07.6567 26198.1
 09 10 2013  03 11  -21.0497 25964.2 -03490.4 -07.6564 26197.8
 09 10 2013  03 12  -21.0491 25964.3 -03490.4 -07.6565 26197.8
 09 10 2013  03 13  -21.0486 25964.6 -03490.6 -07.6568 26198.2
 09 10 2013  03 14  -21.0485 25965.3 -03491.1 -07.6576 26198.9
 09 10 2013  03 15  -21.0490 25966.2 -03491.7 -07.6587 26199.9
 09 10 2013  03 16  -21.0500 25967.2 -03492.3 -07.6598 26201.0
 09 10 2013  03 17  -21.0510 25968.1 -03492.9 -07.6607 26202.0
 09 10 2013  03 18  -21.0517 25968.9 -03493.3 -07.6613 26202.8
 09 10 2013  03 19  -21.0525 25969.4 -03493.5 -07.6617 26203.3
 09 10 2013  03 20  -21.0531 25969.8 -03493.7 -07.6619 26203.8
 09 10 2013  03 21  -21.0536 25970.2 -03493.7 -07.6619 26204.1
 09 10 2013  03 22  -21.0538 25970.4 -03493.8 -07.6619 26204.4
 09 10 2013  03 23  -21.0538 25970.7 -03493.8 -07.6619 26204.6
 09 10 2013  03 24  -21.0538 25971.0 -03493.8 -07.6619 26205.0
 09 10 2013  03 25  -21.0537 25971.2 -03493.9 -07.6619 26205.2
 09 10 2013  03 26  -21.0535 25971.4 -03493.9 -07.6619 26205.4
 09 10 2013  03 27  -21.0531 25971.7 -03493.9 -07.6619 26205.6
 09 10 2013  03 28  -21.0528 25971.9 -03493.9 -07.6619 26205.8
 09 10 2013  03 29  -21.0525 25971.9 -03493.9 -07.6618 26205.9
 09 10 2013  03 30  -21.0521 25972.0 -03493.9 -07.6617 26206.0
 09 10 2013  03 31  -21.0519 25972.0 -03493.9 -07.6616 26206.0
 09 10 2013  03 32  -21.0516 25971.9 -03493.8 -07.6614 26205.8
 09 10 2013  03 33  -21.0513 25971.9 -03493.7 -07.6613 26205.8
 09 10 2013  03 34  -21.0509 25972.3 -03493.8 -07.6614 26206.3
 09 10 2013  03 35  -21.0505 25973.2 -03494.2 -07.6621 26207.2
 09 10 2013  03 36  -21.0506 25973.7 -03494.4 -07.6624 26207.7
 09 10 2013  03 37  -21.0506 25974.5 -03494.8 -07.6630 26208.5
 09 10 2013  03 38  -21.0507 25975.3 -03495.2 -07.6636 26209.4
 09 10 2013  03 39  -21.0506 25975.9 -03495.4 -07.6639 26210.0
 09 10 2013  03 40  -21.0505 25976.0 -03495.4 -07.6638 26210.1
 09 10 2013  03 41  -21.0502 25977.0 -03495.7 -07.6642 26211.1
 09 10 2013  03 42  -21.0500 25977.6 -03496.0 -07.6646 26211.8
 09 10 2013  03 43  -21.0498 25978.0 -03496.0 -07.6646 26212.2
 09 10 2013  03 44  -21.0497 25978.5 -03496.2 -07.6648 26212.7
 09 10 2013  03 45  -21.0497 25979.0 -03496.3 -07.6648 26213.2
 09 10 2013  03 46  -21.0495 25979.2 -03496.3 -07.6647 26213.4
 09 10 2013  03 47  -21.0492 25979.6 -03496.4 -07.6648 26213.8
 09 10 2013  03 48  -21.0490 25980.1 -03496.5 -07.6649 26214.3
 09 10 2013  03 49  -21.0493 25980.5 -03496.6 -07.6651 26214.8
 09 10 2013  03 50  -21.0497 25980.8 -03496.7 -07.6652 26215.0
 09 10 2013  03 51  -21.0502 25981.2 -03496.7 -07.6651 26215.4
 09 10 2013  03 52  -21.0509 25981.5 -03496.8 -07.6652 26215.8
 09 10 2013  03 53  -21.0512 25981.8 -03496.8 -07.6652 26216.1
 09 10 2013  03 54  -21.0517 25981.8 -03496.7 -07.6649 26216.1
 09 10 2013  03 55  -21.0524 25982.2 -03496.7 -07.6649 26216.4
 09 10 2013  03 56  -21.0529 25982.6 -03496.8 -07.6650 26216.9
 09 10 2013  03 57  -21.0532 25983.1 -03496.9 -07.6650 26217.4
 09 10 2013  03 58  -21.0533 25983.6 -03497.0 -07.6652 26217.9
 09 10 2013  03 59  -21.0535 25984.1 -03497.2 -07.6653 26218.4
 09 10 2013  04 00  -21.0539 25984.1 -03497.1 -07.6651 26218.4
 09 10 2013  04 01  -21.0543 25984.4 -03497.1 -07.6650 26218.6
 09 10 2013  04 02  -21.0541 25984.6 -03497.0 -07.6648 26218.9
 09 10 2013  04 03  -21.0539 25984.6 -03496.9 -07.6645 26218.8
 09 10 2013  04 04  -21.0540 25984.7 -03496.8 -07.6643 26218.9
 09 10 2013  04 05  -21.0541 25985.0 -03496.9 -07.6644 26219.2
 09 10 2013  04 06  -21.0544 25985.2 -03496.9 -07.6645 26219.5
 09 10 2013  04 07  -21.0548 25985.5 -03497.0 -07.6645 26219.7
 09 10 2013  04 08  -21.0553 25985.7 -03497.0 -07.6645 26219.9
 09 10 2013  04 09  -21.0557 25985.9 -03497.1 -07.6645 26220.1
 09 10 2013  04 10  -21.0558 25986.2 -03497.1 -07.6646 26220.4
 09 10 2013  04 11  -21.0560 25986.3 -03497.1 -07.6645 26220.6
 09 10 2013  04 12  -21.0560 25986.5 -03497.1 -07.6645 26220.8
 09 10 2013  04 13  -21.0560 25986.8 -03497.2 -07.6645 26221.1
 09 10 2013  04 14  -21.0560 25987.1 -03497.3 -07.6646 26221.4
 09 10 2013  04 15  -21.0562 25987.3 -03497.3 -07.6645 26221.5
 09 10 2013  04 16  -21.0565 25987.3 -03497.2 -07.6644 26221.5
 09 10 2013  04 17  -21.0570 25987.3 -03497.1 -07.6642 26221.5
 09 10 2013  04 18  -21.0572 25987.7 -03497.1 -07.6642 26222.0
 09 10 2013  04 19  -21.0572 25988.4 -03497.4 -07.6645 26222.7
 09 10 2013  04 20  -21.0574 25988.8 -03497.5 -07.6647 26223.0
 09 10 2013  04 21  -21.0575 25988.9 -03497.5 -07.6646 26223.2
 09 10 2013  04 22  -21.0577 25989.1 -03497.5 -07.6645 26223.4
 09 10 2013  04 23  -21.0582 25989.1 -03497.5 -07.6645 26223.4
 09 10 2013  04 24  -21.0579 25988.9 -03497.3 -07.6641 26223.2
 09 10 2013  04 25  -21.0566 25988.6 -03496.9 -07.6634 26222.8
 09 10 2013  04 26  -21.0553 25988.3 -03496.7 -07.6630 26222.5
 09 10 2013  04 27  -21.0546 25988.2 -03496.6 -07.6628 26222.3
 09 10 2013  04 28  -21.0544 25988.1 -03496.5 -07.6628 26222.3
 09 10 2013  04 29  -21.0543 25988.1 -03496.6 -07.6628 26222.3
 09 10 2013  04 30  -21.0540 25988.5 -03496.7 -07.6630 26222.6
 09 10 2013  04 31  -21.0542 25988.7 -03496.9 -07.6633 26222.9
 09 10 2013  04 32  -21.0548 25988.6 -03496.9 -07.6633 26222.8
 09 10 2013  04 33  -21.0554 25988.6 -03496.8 -07.6632 26222.8
 09 10 2013  04 34  -21.0561 25988.8 -03496.9 -07.6633 26223.0
 09 10 2013  04 35  -21.0571 25989.3 -03497.0 -07.6634 26223.5
 09 10 2013  04 36  -21.0578 25989.7 -03497.1 -07.6636 26223.9
 09 10 2013  04 37  -21.0580 25989.7 -03497.0 -07.6633 26223.9
 09 10 2013  04 38  -21.0578 25989.4 -03496.7 -07.6627 26223.6
 09 10 2013  04 39  -21.0579 25989.7 -03496.6 -07.6624 26223.8
 09 10 2013  04 40  -21.0584 25990.7 -03497.0 -07.6630 26224.9
 09 10 2013  04 41  -21.0587 25991.6 -03497.3 -07.6635 26225.8
 09 10 2013  04 42  -21.0587 25991.8 -03497.3 -07.6632 26226.1
 09 10 2013  04 43  -21.0583 25992.5 -03497.4 -07.6633 26226.7
 09 10 2013  04 44  -21.0582 25992.6 -03497.3 -07.6631 26226.8
 09 10 2013  04 45  -21.0584 25993.0 -03497.3 -07.6630 26227.3
 09 10 2013  04 46  -21.0586 25993.5 -03497.4 -07.6631 26227.7
 09 10 2013  04 47  -21.0592 25994.3 -03497.6 -07.6633 26228.5
 09 10 2013  04 48  -21.0598 25994.8 -03497.7 -07.6634 26229.0
 09 10 2013  04 49  -21.0604 25995.5 -03497.9 -07.6636 26229.7
 09 10 2013  04 50  -21.0611 25996.4 -03498.2 -07.6638 26230.7
 09 10 2013  04 51  -21.0621 25997.9 -03498.7 -07.6647 26232.3
 09 10 2013  04 52  -21.0633 25999.8 -03499.5 -07.6658 26234.3
 09 10 2013  04 53  -21.0648 26002.7 -03500.7 -07.6675 26237.3
 09 10 2013  04 54  -21.0660 26005.9 -03502.1 -07.6695 26240.7
 09 10 2013  04 55  -21.0668 26008.8 -03503.2 -07.6711 26243.6
 09 10 2013  04 56  -21.0672 26011.6 -03504.1 -07.6723 26246.5
 09 10 2013  04 57  -21.0664 26013.3 -03504.5 -07.6727 26248.3
 09 10 2013  04 58  -21.0628 26012.7 -03503.5 -07.6707 26247.5
 09 10 2013  04 59  -21.0583 26011.7 -03502.2 -07.6682 26246.4
 09 10 2013  05 00  -21.0563 26012.2 -03501.9 -07.6675 26246.8
 09 10 2013  05 01  -21.0544 26011.9 -03501.6 -07.6669 26246.5
 09 10 2013  05 02  -21.0537 26010.1 -03500.6 -07.6651 26244.6
 09 10 2013  05 03  -21.0541 26008.7 -03499.7 -07.6635 26243.1
 09 10 2013  05 04  -21.0545 26008.0 -03499.2 -07.6626 26242.3
 09 10 2013  05 05  -21.0542 26005.9 -03498.0 -07.6608 26240.1
 09 10 2013  05 06  -21.0554 26002.8 -03496.5 -07.6583 26236.8
 09 10 2013  05 07  -21.0576 25999.6 -03494.8 -07.6556 26233.4
 09 10 2013  05 08  -21.0598 25997.6 -03493.7 -07.6539 26231.3
 09 10 2013  05 09  -21.0615 25997.3 -03493.5 -07.6536 26231.0
 09 10 2013  05 10  -21.0624 25999.4 -03494.6 -07.6553 26233.2
 09 10 2013  05 11  -21.0637 26001.2 -03495.8 -07.6573 26235.2
 09 10 2013  05 12  -21.0644 26001.1 -03495.9 -07.6576 26235.1
 09 10 2013  05 13  -21.0642 26000.1 -03495.2 -07.6563 26234.0
 09 10 2013  05 14  -21.0638 26000.8 -03495.3 -07.6563 26234.7
