SAO LUIS EMBRACE-03 <312> 1 Min. Reported data

 DD MM YYYY  HH MM   D(Deg)  H(nT)   Z(nT)   I(Deg)   F(nT)

 08 11 2013  00 00  -21.0325 25994.5 -03503.0 -07.6748 26229.4
 08 11 2013  00 01  -21.0325 25994.4 -03502.9 -07.6748 26229.4
 08 11 2013  00 02  -21.0328 25994.4 -03503.0 -07.6749 26229.4
 08 11 2013  00 03  -21.0327 25994.4 -03503.0 -07.6748 26229.4
 08 11 2013  00 04  -21.0326 25994.5 -03503.0 -07.6748 26229.4
 08 11 2013  00 05  -21.0324 25994.5 -03503.0 -07.6749 26229.4
 08 11 2013  00 06  -21.0322 25994.4 -03502.9 -07.6748 26229.4
 08 11 2013  00 07  -21.0320 25994.5 -03503.0 -07.6749 26229.5
 08 11 2013  00 08  -21.0322 25994.7 -03503.1 -07.6751 26229.6
 08 11 2013  00 09  -21.0323 25994.6 -03503.1 -07.6751 26229.5
 08 11 2013  00 10  -21.0320 25994.9 -03503.2 -07.6752 26229.9
 08 11 2013  00 11  -21.0319 25995.0 -03503.3 -07.6755 26230.0
 08 11 2013  00 12  -21.0317 25994.9 -03503.3 -07.6754 26229.9
 08 11 2013  00 13  -21.0317 25994.5 -03503.1 -07.6751 26229.5
 08 11 2013  00 14  -21.0317 25994.1 -03502.9 -07.6748 26229.1
 08 11 2013  00 15  -21.0316 25993.8 -03502.7 -07.6745 26228.7
 08 11 2013  00 16  -21.0315 25993.5 -03502.6 -07.6743 26228.4
 08 11 2013  00 17  -21.0317 25993.2 -03502.6 -07.6743 26228.1
 08 11 2013  00 18  -21.0319 25993.0 -03502.5 -07.6742 26227.9
 08 11 2013  00 19  -21.0319 25992.7 -03502.4 -07.6742 26227.6
 08 11 2013  00 20  -21.0315 25992.8 -03502.5 -07.6742 26227.7
 08 11 2013  00 21  -21.0311 25992.8 -03502.5 -07.6742 26227.7
 08 11 2013  00 22  -21.0307 25993.0 -03502.6 -07.6745 26227.9
 08 11 2013  00 23  -21.0306 25993.2 -03502.8 -07.6748 26228.2
 08 11 2013  00 24  -21.0306 25993.5 -03503.0 -07.6752 26228.5
 08 11 2013  00 25  -21.0303 25993.8 -03503.2 -07.6755 26228.8
 08 11 2013  00 26  -21.0299 25994.0 -03503.3 -07.6756 26229.0
 08 11 2013  00 27  -21.0297 25994.1 -03503.4 -07.6758 26229.1
 08 11 2013  00 28  -21.0293 25994.3 -03503.5 -07.6759 26229.3
 08 11 2013  00 29  -21.0290 25994.4 -03503.6 -07.6761 26229.5
 08 11 2013  00 30  -21.0290 25994.4 -03503.6 -07.6762 26229.5
 08 11 2013  00 31  -21.0290 25994.5 -03503.6 -07.6763 26229.5
 08 11 2013  00 32  -21.0289 25994.5 -03503.6 -07.6762 26229.5
 08 11 2013  00 33  -21.0285 25994.2 -03503.5 -07.6760 26229.3
 08 11 2013  00 34  -21.0280 25994.1 -03503.4 -07.6758 26229.1
 08 11 2013  00 35  -21.0275 25994.1 -03503.3 -07.6757 26229.1
 08 11 2013  00 36  -21.0270 25994.3 -03503.5 -07.6759 26229.3
 08 11 2013  00 37  -21.0265 25994.3 -03503.5 -07.6760 26229.4
 08 11 2013  00 38  -21.0258 25994.5 -03503.5 -07.6761 26229.5
 08 11 2013  00 39  -21.0255 25994.6 -03503.6 -07.6762 26229.6
 08 11 2013  00 40  -21.0253 25994.5 -03503.7 -07.6763 26229.6
 08 11 2013  00 41  -21.0247 25994.4 -03503.6 -07.6762 26229.5
 08 11 2013  00 42  -21.0241 25994.5 -03503.6 -07.6762 26229.5
 08 11 2013  00 43  -21.0236 25994.4 -03503.6 -07.6762 26229.5
 08 11 2013  00 44  -21.0234 25994.4 -03503.6 -07.6763 26229.4
 08 11 2013  00 45  -21.0231 25994.3 -03503.6 -07.6763 26229.4
 08 11 2013  00 46  -21.0229 25994.4 -03503.7 -07.6764 26229.4
 08 11 2013  00 47  -21.0228 25994.5 -03503.7 -07.6765 26229.5
 08 11 2013  00 48  -21.0232 25994.7 -03503.9 -07.6768 26229.8
 08 11 2013  00 49  -21.0238 25994.9 -03504.1 -07.6771 26230.1
 08 11 2013  00 50  -21.0243 25995.1 -03504.1 -07.6772 26230.2
 08 11 2013  00 51  -21.0245 25995.2 -03504.2 -07.6772 26230.3
 08 11 2013  00 52  -21.0246 25995.2 -03504.1 -07.6771 26230.3
 08 11 2013  00 53  -21.0246 25995.1 -03504.0 -07.6769 26230.2
 08 11 2013  00 54  -21.0245 25995.0 -03504.0 -07.6768 26230.1
 08 11 2013  00 55  -21.0243 25995.0 -03503.9 -07.6766 26230.1
 08 11 2013  00 56  -21.0243 25995.0 -03503.9 -07.6766 26230.1
 08 11 2013  00 57  -21.0244 25995.1 -03503.9 -07.6766 26230.1
 08 11 2013  00 58  -21.0245 25995.2 -03503.9 -07.6767 26230.2
 08 11 2013  00 59  -21.0247 25995.3 -03504.0 -07.6768 26230.4
 08 11 2013  01 00  -21.0248 25995.5 -03504.0 -07.6768 26230.6
 08 11 2013  01 01  -21.0250 25995.7 -03504.1 -07.6770 26230.8
 08 11 2013  01 02  -21.0249 25995.7 -03504.1 -07.6770 26230.9
 08 11 2013  01 03  -21.0248 25995.9 -03504.2 -07.6771 26231.0
 08 11 2013  01 04  -21.0247 25996.1 -03504.3 -07.6772 26231.3
 08 11 2013  01 05  -21.0246 25996.3 -03504.3 -07.6772 26231.4
 08 11 2013  01 06  -21.0244 25996.5 -03504.3 -07.6772 26231.6
 08 11 2013  01 07  -21.0242 25996.6 -03504.4 -07.6772 26231.7
 08 11 2013  01 08  -21.0240 25996.6 -03504.3 -07.6772 26231.8
 08 11 2013  01 09  -21.0240 25996.7 -03504.3 -07.6771 26231.8
 08 11 2013  01 10  -21.0240 25996.8 -03504.3 -07.6770 26231.9
 08 11 2013  01 11  -21.0242 25996.8 -03504.3 -07.6770 26231.9
 08 11 2013  01 12  -21.0244 25996.8 -03504.3 -07.6770 26231.9
 08 11 2013  01 13  -21.0246 25996.8 -03504.3 -07.6770 26231.9
 08 11 2013  01 14  -21.0250 25996.7 -03504.2 -07.6768 26231.8
 08 11 2013  01 15  -21.0252 25996.5 -03504.1 -07.6767 26231.6
 08 11 2013  01 16  -21.0253 25996.3 -03504.0 -07.6764 26231.4
 08 11 2013  01 17  -21.0253 25996.1 -03503.8 -07.6762 26231.2
 08 11 2013  01 18  -21.0253 25996.1 -03503.8 -07.6761 26231.2
 08 11 2013  01 19  -21.0252 25996.1 -03503.8 -07.6761 26231.1
 08 11 2013  01 20  -21.0251 25996.1 -03503.8 -07.6761 26231.1
 08 11 2013  01 21  -21.0250 25996.3 -03503.9 -07.6763 26231.3
 08 11 2013  01 22  -21.0251 25996.4 -03504.0 -07.6764 26231.5
 08 11 2013  01 23  -21.0252 25996.6 -03504.1 -07.6766 26231.7
 08 11 2013  01 24  -21.0253 25996.7 -03504.1 -07.6766 26231.7
 08 11 2013  01 25  -21.0253 25996.8 -03504.2 -07.6767 26231.9
 08 11 2013  01 26  -21.0252 25997.0 -03504.3 -07.6769 26232.1
 08 11 2013  01 27  -21.0253 25997.4 -03504.4 -07.6771 26232.5
 08 11 2013  01 28  -21.0252 25997.5 -03504.5 -07.6773 26232.7
 08 11 2013  01 29  -21.0252 25997.7 -03504.6 -07.6773 26232.9
 08 11 2013  01 30  -21.0252 25997.9 -03504.6 -07.6774 26233.0
 08 11 2013  01 31  -21.0251 25998.0 -03504.7 -07.6775 26233.2
 08 11 2013  01 32  -21.0249 25998.3 -03504.8 -07.6776 26233.5
 08 11 2013  01 33  -21.0247 25998.6 -03504.9 -07.6778 26233.7
 08 11 2013  01 34  -21.0244 25998.9 -03505.0 -07.6779 26234.1
 08 11 2013  01 35  -21.0242 25999.1 -03505.1 -07.6781 26234.3
 08 11 2013  01 36  -21.0241 25999.3 -03505.2 -07.6782 26234.5
 08 11 2013  01 37  -21.0241 25999.4 -03505.2 -07.6783 26234.6
 08 11 2013  01 38  -21.0238 25999.3 -03505.2 -07.6781 26234.5
 08 11 2013  01 39  -21.0236 25999.2 -03505.1 -07.6781 26234.4
 08 11 2013  01 40  -21.0232 25999.0 -03505.0 -07.6780 26234.2
 08 11 2013  01 41  -21.0231 25998.7 -03504.9 -07.6777 26233.9
 08 11 2013  01 42  -21.0228 25998.2 -03504.6 -07.6773 26233.4
 08 11 2013  01 43  -21.0225 25997.8 -03504.4 -07.6770 26232.9
 08 11 2013  01 44  -21.0223 25997.6 -03504.3 -07.6768 26232.7
 08 11 2013  01 45  -21.0222 25997.4 -03504.3 -07.6768 26232.5
 08 11 2013  01 46  -21.0220 25997.4 -03504.3 -07.6768 26232.5
 08 11 2013  01 47  -21.0217 25997.7 -03504.5 -07.6772 26232.8
 08 11 2013  01 48  -21.0213 25998.1 -03504.8 -07.6777 26233.3
 08 11 2013  01 49  -21.0211 25998.5 -03505.0 -07.6781 26233.7
 08 11 2013  01 50  -21.0209 25998.9 -03505.3 -07.6786 26234.1
 08 11 2013  01 51  -21.0206 25999.0 -03505.4 -07.6788 26234.2
 08 11 2013  01 52  -21.0202 25998.8 -03505.3 -07.6787 26234.1
 08 11 2013  01 53  -21.0199 25998.5 -03505.2 -07.6785 26233.7
 08 11 2013  01 54  -21.0197 25998.2 -03505.1 -07.6783 26233.4
 08 11 2013  01 55  -21.0195 25998.0 -03505.0 -07.6782 26233.2
 08 11 2013  01 56  -21.0194 25997.8 -03505.0 -07.6781 26233.0
 08 11 2013  01 57  -21.0195 25997.9 -03505.0 -07.6783 26233.1
 08 11 2013  01 58  -21.0198 25998.0 -03505.2 -07.6785 26233.3
 08 11 2013  01 59  -21.0202 25998.2 -03505.3 -07.6788 26233.4
 08 11 2013  02 00  -21.0206 25998.3 -03505.4 -07.6789 26233.6
 08 11 2013  02 01  -21.0210 25998.4 -03505.5 -07.6791 26233.6
 08 11 2013  02 02  -21.0213 25998.4 -03505.5 -07.6791 26233.7
 08 11 2013  02 03  -21.0217 25998.6 -03505.6 -07.6793 26233.9
 08 11 2013  02 04  -21.0218 25998.7 -03505.6 -07.6793 26234.0
 08 11 2013  02 05  -21.0222 25998.7 -03505.6 -07.6792 26233.9
 08 11 2013  02 06  -21.0225 25998.4 -03505.5 -07.6790 26233.7
 08 11 2013  02 07  -21.0228 25998.2 -03505.3 -07.6787 26233.4
 08 11 2013  02 08  -21.0229 25998.0 -03505.1 -07.6785 26233.2
 08 11 2013  02 09  -21.0230 25997.9 -03505.1 -07.6783 26233.2
 08 11 2013  02 10  -21.0231 25998.1 -03505.1 -07.6785 26233.3
 08 11 2013  02 11  -21.0233 25998.4 -03505.3 -07.6787 26233.7
 08 11 2013  02 12  -21.0234 25998.8 -03505.5 -07.6790 26234.1
 08 11 2013  02 13  -21.0235 25999.4 -03505.8 -07.6794 26234.7
 08 11 2013  02 14  -21.0234 26000.0 -03506.0 -07.6798 26235.3
 08 11 2013  02 15  -21.0234 26000.6 -03506.2 -07.6801 26235.9
 08 11 2013  02 16  -21.0233 26000.9 -03506.3 -07.6802 26236.2
 08 11 2013  02 17  -21.0234 26000.9 -03506.3 -07.6802 26236.3
 08 11 2013  02 18  -21.0233 26000.7 -03506.2 -07.6799 26236.1
 08 11 2013  02 19  -21.0232 26000.4 -03505.9 -07.6795 26235.7
 08 11 2013  02 20  -21.0231 26000.0 -03505.6 -07.6789 26235.2
 08 11 2013  02 21  -21.0229 25999.7 -03505.4 -07.6785 26235.0
 08 11 2013  02 22  -21.0228 25999.5 -03505.3 -07.6783 26234.7
 08 11 2013  02 23  -21.0228 25999.3 -03505.2 -07.6781 26234.5
 08 11 2013  02 24  -21.0229 25999.3 -03505.1 -07.6781 26234.5
 08 11 2013  02 25  -21.0229 25999.4 -03505.2 -07.6782 26234.6
 08 11 2013  02 26  -21.0230 25999.7 -03505.4 -07.6785 26234.9
 08 11 2013  02 27  -21.0231 26000.1 -03505.6 -07.6788 26235.4
 08 11 2013  02 28  -21.0233 26000.5 -03505.8 -07.6792 26235.8
 08 11 2013  02 29  -21.0235 26000.8 -03505.9 -07.6793 26236.0
 08 11 2013  02 30  -21.0235 26001.0 -03505.9 -07.6793 26236.3
 08 11 2013  02 31  -21.0234 26001.1 -03505.9 -07.6793 26236.4
 08 11 2013  02 32  -21.0232 26001.2 -03505.9 -07.6792 26236.5
 08 11 2013  02 33  -21.0230 26001.6 -03506.0 -07.6793 26236.9
 08 11 2013  02 34  -21.0226 26002.1 -03506.2 -07.6795 26237.4
 08 11 2013  02 35  -21.0222 26002.4 -03506.3 -07.6797 26237.7
 08 11 2013  02 36  -21.0218 26002.5 -03506.3 -07.6796 26237.8
 08 11 2013  02 37  -21.0212 26002.3 -03506.1 -07.6794 26237.6
 08 11 2013  02 38  -21.0204 26002.3 -03506.0 -07.6791 26237.6
 08 11 2013  02 39  -21.0198 26002.1 -03505.9 -07.6790 26237.4
 08 11 2013  02 40  -21.0192 26002.1 -03505.9 -07.6788 26237.4
 08 11 2013  02 41  -21.0187 26001.9 -03505.8 -07.6787 26237.2
 08 11 2013  02 42  -21.0183 26001.7 -03505.7 -07.6786 26237.0
 08 11 2013  02 43  -21.0181 26001.6 -03505.7 -07.6786 26236.9
 08 11 2013  02 44  -21.0181 26001.5 -03505.6 -07.6786 26236.8
 08 11 2013  02 45  -21.0181 26001.5 -03505.6 -07.6786 26236.7
 08 11 2013  02 46  -21.0183 26001.4 -03505.7 -07.6786 26236.7
 08 11 2013  02 47  -21.0184 26001.5 -03505.6 -07.6786 26236.7
 08 11 2013  02 48  -21.0186 26001.5 -03505.7 -07.6786 26236.7
 08 11 2013  02 49  -21.0189 26001.4 -03505.7 -07.6787 26236.7
 08 11 2013  02 50  -21.0192 26001.4 -03505.7 -07.6788 26236.7
 08 11 2013  02 51  -21.0194 26001.4 -03505.7 -07.6787 26236.7
 08 11 2013  02 52  -21.0195 26001.4 -03505.7 -07.6788 26236.7
 08 11 2013  02 53  -21.0197 26001.5 -03505.8 -07.6788 26236.8
 08 11 2013  02 54  -21.0197 26001.5 -03505.8 -07.6789 26236.8
 08 11 2013  02 55  -21.0197 26001.6 -03505.8 -07.6789 26236.9
 08 11 2013  02 56  -21.0197 26001.6 -03505.8 -07.6789 26236.9
 08 11 2013  02 57  -21.0198 26001.7 -03505.8 -07.6789 26237.0
 08 11 2013  02 58  -21.0199 26001.8 -03505.9 -07.6790 26237.0
 08 11 2013  02 59  -21.0200 26001.8 -03505.9 -07.6791 26237.1
 08 11 2013  03 00  -21.0201 26001.8 -03506.0 -07.6791 26237.1
 08 11 2013  03 01  -21.0201 26001.9 -03506.0 -07.6792 26237.2
 08 11 2013  03 02  -21.0200 26002.0 -03506.0 -07.6793 26237.3
 08 11 2013  03 03  -21.0199 26002.0 -03506.1 -07.6793 26237.3
 08 11 2013  03 04  -21.0198 26002.2 -03506.1 -07.6794 26237.6
 08 11 2013  03 05  -21.0198 26002.6 -03506.4 -07.6798 26238.0
 08 11 2013  03 06  -21.0199 26002.9 -03506.5 -07.6801 26238.3
 08 11 2013  03 07  -21.0199 26003.1 -03506.7 -07.6803 26238.5
 08 11 2013  03 08  -21.0198 26003.2 -03506.7 -07.6804 26238.6
 08 11 2013  03 09  -21.0198 26003.2 -03506.6 -07.6802 26238.5
 08 11 2013  03 10  -21.0197 26002.9 -03506.6 -07.6801 26238.3
 08 11 2013  03 11  -21.0194 26002.6 -03506.4 -07.6798 26237.9
 08 11 2013  03 12  -21.0192 26002.3 -03506.2 -07.6795 26237.6
 08 11 2013  03 13  -21.0189 26002.2 -03506.1 -07.6794 26237.5
 08 11 2013  03 14  -21.0189 26002.3 -03506.2 -07.6796 26237.6
 08 11 2013  03 15  -21.0190 26002.5 -03506.4 -07.6798 26237.8
 08 11 2013  03 16  -21.0190 26002.8 -03506.6 -07.6802 26238.2
 08 11 2013  03 17  -21.0190 26003.3 -03506.8 -07.6806 26238.7
 08 11 2013  03 18  -21.0189 26003.7 -03507.1 -07.6810 26239.1
 08 11 2013  03 19  -21.0187 26004.0 -03507.2 -07.6813 26239.4
 08 11 2013  03 20  -21.0185 26004.2 -03507.3 -07.6814 26239.6
 08 11 2013  03 21  -21.0181 26004.2 -03507.3 -07.6814 26239.6
 08 11 2013  03 22  -21.0176 26004.1 -03507.3 -07.6813 26239.5
 08 11 2013  03 23  -21.0171 26003.8 -03507.1 -07.6810 26239.2
 08 11 2013  03 24  -21.0167 26003.4 -03506.9 -07.6807 26238.8
 08 11 2013  03 25  -21.0164 26002.8 -03506.6 -07.6803 26238.2
 08 11 2013  03 26  -21.0161 26002.3 -03506.3 -07.6798 26237.7
 08 11 2013  03 27  -21.0157 26001.9 -03506.1 -07.6795 26237.2
 08 11 2013  03 28  -21.0157 26001.7 -03506.1 -07.6795 26237.0
 08 11 2013  03 29  -21.0157 26001.7 -03506.1 -07.6795 26237.0
 08 11 2013  03 30  -21.0160 26001.8 -03506.3 -07.6798 26237.2
 08 11 2013  03 31  -21.0163 26002.1 -03506.4 -07.6801 26237.4
 08 11 2013  03 32  -21.0168 26002.3 -03506.6 -07.6804 26237.7
 08 11 2013  03 33  -21.0173 26002.4 -03506.7 -07.6806 26237.8
 08 11 2013  03 34  -21.0176 26002.5 -03506.8 -07.6807 26237.9
 08 11 2013  03 35  -21.0179 26002.6 -03506.8 -07.6807 26238.0
 08 11 2013  03 36  -21.0182 26002.6 -03506.7 -07.6806 26238.0
 08 11 2013  03 37  -21.0183 26002.6 -03506.7 -07.6806 26238.0
 08 11 2013  03 38  -21.0185 26002.8 -03506.8 -07.6806 26238.2
 08 11 2013  03 39  -21.0186 26003.0 -03506.8 -07.6806 26238.4
 08 11 2013  03 40  -21.0186 26003.2 -03506.8 -07.6806 26238.6
 08 11 2013  03 41  -21.0185 26003.4 -03506.9 -07.6807 26238.8
 08 11 2013  03 42  -21.0185 26003.5 -03506.9 -07.6808 26238.9
 08 11 2013  03 43  -21.0184 26003.7 -03507.0 -07.6808 26239.1
 08 11 2013  03 44  -21.0184 26003.8 -03507.0 -07.6808 26239.2
 08 11 2013  03 45  -21.0183 26003.8 -03506.9 -07.6807 26239.2
 08 11 2013  03 46  -21.0181 26003.8 -03506.9 -07.6806 26239.2
 08 11 2013  03 47  -21.0181 26003.8 -03506.9 -07.6806 26239.3
 08 11 2013  03 48  -21.0178 26003.9 -03506.8 -07.6805 26239.3
 08 11 2013  03 49  -21.0176 26003.7 -03506.8 -07.6804 26239.1
 08 11 2013  03 50  -21.0174 26003.5 -03506.7 -07.6802 26238.9
 08 11 2013  03 51  -21.0171 26003.4 -03506.6 -07.6801 26238.8
 08 11 2013  03 52  -21.0168 26003.5 -03506.6 -07.6801 26238.9
 08 11 2013  03 53  -21.0166 26003.7 -03506.7 -07.6802 26239.0
 08 11 2013  03 54  -21.0167 26003.7 -03506.7 -07.6803 26239.1
 08 11 2013  03 55  -21.0166 26003.6 -03506.7 -07.6803 26239.0
 08 11 2013  03 56  -21.0165 26003.5 -03506.7 -07.6802 26238.9
 08 11 2013  03 57  -21.0166 26003.4 -03506.6 -07.6801 26238.8
 08 11 2013  03 58  -21.0169 26003.4 -03506.6 -07.6801 26238.8
 08 11 2013  03 59  -21.0174 26003.4 -03506.6 -07.6801 26238.7
 08 11 2013  04 00  -21.0177 26003.3 -03506.6 -07.6801 26238.6
 08 11 2013  04 01  -21.0179 26003.2 -03506.5 -07.6798 26238.5
 08 11 2013  04 02  -21.0181 26003.1 -03506.4 -07.6798 26238.5
 08 11 2013  04 03  -21.0182 26003.2 -03506.4 -07.6797 26238.5
 08 11 2013  04 04  -21.0183 26003.2 -03506.4 -07.6797 26238.5
 08 11 2013  04 05  -21.0183 26003.2 -03506.4 -07.6797 26238.5
 08 11 2013  04 06  -21.0181 26003.2 -03506.3 -07.6796 26238.5
 08 11 2013  04 07  -21.0180 26003.2 -03506.3 -07.6796 26238.6
 08 11 2013  04 08  -21.0180 26003.4 -03506.4 -07.6797 26238.8
 08 11 2013  04 09  -21.0182 26003.6 -03506.5 -07.6797 26239.0
 08 11 2013  04 10  -21.0183 26003.7 -03506.5 -07.6797 26239.0
 08 11 2013  04 11  -21.0182 26003.7 -03506.4 -07.6796 26239.0
 08 11 2013  04 12  -21.0180 26003.6 -03506.4 -07.6795 26239.0
 08 11 2013  04 13  -21.0178 26003.5 -03506.3 -07.6793 26238.8
 08 11 2013  04 14  -21.0176 26003.4 -03506.2 -07.6791 26238.7
 08 11 2013  04 15  -21.0176 26003.3 -03506.1 -07.6790 26238.7
 08 11 2013  04 16  -21.0177 26003.3 -03506.1 -07.6789 26238.6
 08 11 2013  04 17  -21.0178 26003.3 -03506.1 -07.6790 26238.6
 08 11 2013  04 18  -21.0181 26003.4 -03506.1 -07.6790 26238.7
 08 11 2013  04 19  -21.0183 26003.5 -03506.2 -07.6791 26238.8
 08 11 2013  04 20  -21.0185 26003.6 -03506.2 -07.6792 26238.9
 08 11 2013  04 21  -21.0188 26003.7 -03506.2 -07.6792 26239.1
 08 11 2013  04 22  -21.0190 26003.8 -03506.2 -07.6792 26239.1
 08 11 2013  04 23  -21.0190 26003.9 -03506.2 -07.6791 26239.2
 08 11 2013  04 24  -21.0191 26004.0 -03506.2 -07.6791 26239.3
 08 11 2013  04 25  -21.0193 26004.2 -03506.3 -07.6791 26239.5
 08 11 2013  04 26  -21.0192 26004.8 -03506.5 -07.6794 26240.1
 08 11 2013  04 27  -21.0189 26005.3 -03506.7 -07.6797 26240.7
 08 11 2013  04 28  -21.0185 26005.7 -03506.8 -07.6798 26241.0
 08 11 2013  04 29  -21.0181 26005.7 -03506.7 -07.6797 26241.1
 08 11 2013  04 30  -21.0176 26005.8 -03506.7 -07.6796 26241.1
 08 11 2013  04 31  -21.0171 26005.8 -03506.7 -07.6795 26241.2
 08 11 2013  04 32  -21.0166 26005.9 -03506.6 -07.6794 26241.3
 08 11 2013  04 33  -21.0162 26005.9 -03506.6 -07.6794 26241.3
 08 11 2013  04 34  -21.0160 26005.8 -03506.5 -07.6792 26241.2
 08 11 2013  04 35  -21.0157 26005.7 -03506.4 -07.6790 26241.0
 08 11 2013  04 36  -21.0154 26005.3 -03506.2 -07.6786 26240.6
 08 11 2013  04 37  -21.0150 26004.9 -03506.0 -07.6783 26240.2
 08 11 2013  04 38  -21.0150 26004.6 -03505.8 -07.6780 26239.8
 08 11 2013  04 39  -21.0152 26004.4 -03505.7 -07.6779 26239.6
 08 11 2013  04 40  -21.0156 26004.2 -03505.7 -07.6779 26239.5
 08 11 2013  04 41  -21.0160 26004.1 -03505.7 -07.6778 26239.4
 08 11 2013  04 42  -21.0164 26004.1 -03505.7 -07.6779 26239.3
 08 11 2013  04 43  -21.0168 26004.0 -03505.7 -07.6780 26239.3
 08 11 2013  04 44  -21.0171 26004.2 -03505.7 -07.6780 26239.4
 08 11 2013  04 45  -21.0176 26004.3 -03505.8 -07.6782 26239.6
 08 11 2013  04 46  -21.0180 26004.5 -03505.9 -07.6783 26239.7
 08 11 2013  04 47  -21.0182 26004.6 -03505.9 -07.6783 26239.8
 08 11 2013  04 48  -21.0186 26004.6 -03505.9 -07.6782 26239.8
 08 11 2013  04 49  -21.0190 26004.6 -03505.9 -07.6782 26239.8
 08 11 2013  04 50  -21.0195 26004.6 -03505.9 -07.6782 26239.9
 08 11 2013  04 51  -21.0197 26004.6 -03505.8 -07.6781 26239.8
 08 11 2013  04 52  -21.0198 26004.5 -03505.8 -07.6779 26239.8
 08 11 2013  04 53  -21.0198 26004.6 -03505.7 -07.6778 26239.8
 08 11 2013  04 54  -21.0201 26004.7 -03505.7 -07.6779 26239.9
 08 11 2013  04 55  -21.0203 26004.8 -03505.8 -07.6779 26240.0
 08 11 2013  04 56  -21.0207 26004.8 -03505.8 -07.6780 26240.1
 08 11 2013  04 57  -21.0211 26004.9 -03505.8 -07.6779 26240.1
 08 11 2013  04 58  -21.0214 26004.9 -03505.8 -07.6779 26240.1
 08 11 2013  04 59  -21.0217 26004.9 -03505.7 -07.6777 26240.1
 08 11 2013  05 00  -21.0219 26004.8 -03505.7 -07.6776 26240.1
 08 11 2013  05 01  -21.0222 26004.8 -03505.6 -07.6776 26240.1
 08 11 2013  05 02  -21.0223 26004.8 -03505.6 -07.6774 26240.0
 08 11 2013  05 03  -21.0225 26004.9 -03505.6 -07.6775 26240.1
 08 11 2013  05 04  -21.0227 26005.0 -03505.6 -07.6775 26240.2
 08 11 2013  05 05  -21.0229 26005.1 -03505.6 -07.6775 26240.4
 08 11 2013  05 06  -21.0232 26005.3 -03505.7 -07.6776 26240.5
 08 11 2013  05 07  -21.0233 26005.4 -03505.7 -07.6776 26240.6
 08 11 2013  05 08  -21.0234 26005.5 -03505.7 -07.6775 26240.7
 08 11 2013  05 09  -21.0236 26005.6 -03505.8 -07.6777 26240.8
 08 11 2013  05 10  -21.0238 26005.7 -03505.7 -07.6776 26240.9
 08 11 2013  05 11  -21.0242 26005.7 -03505.7 -07.6776 26240.9
 08 11 2013  05 12  -21.0245 26005.6 -03505.7 -07.6775 26240.9
 08 11 2013  05 13  -21.0247 26005.6 -03505.6 -07.6772 26240.8
 08 11 2013  05 14  -21.0249 26005.6 -03505.6 -07.6772 26240.8
