SAO LUIS EMBRACE-03 <313> 1 Min. Reported data

 DD MM YYYY  HH MM   D(Deg)  H(nT)   Z(nT)   I(Deg)   F(nT)

 09 11 2013  00 00  -20.9927 26024.8 -03506.2 -07.6729 26259.9
 09 11 2013  00 01  -20.9924 26025.1 -03506.3 -07.6732 26260.2
 09 11 2013  00 02  -20.9924 26025.2 -03506.4 -07.6734 26260.3
 09 11 2013  00 03  -20.9923 26025.2 -03506.4 -07.6734 26260.3
 09 11 2013  00 04  -20.9923 26025.0 -03506.4 -07.6733 26260.2
 09 11 2013  00 05  -20.9922 26025.1 -03506.3 -07.6732 26260.2
 09 11 2013  00 06  -20.9917 26025.2 -03506.4 -07.6733 26260.4
 09 11 2013  00 07  -20.9915 26025.3 -03506.5 -07.6734 26260.5
 09 11 2013  00 08  -20.9914 26025.3 -03506.5 -07.6734 26260.5
 09 11 2013  00 09  -20.9914 26025.1 -03506.4 -07.6733 26260.3
 09 11 2013  00 10  -20.9915 26024.9 -03506.3 -07.6731 26260.0
 09 11 2013  00 11  -20.9918 26024.8 -03506.2 -07.6730 26259.9
 09 11 2013  00 12  -20.9919 26024.8 -03506.2 -07.6730 26259.9
 09 11 2013  00 13  -20.9920 26024.7 -03506.2 -07.6730 26259.8
 09 11 2013  00 14  -20.9921 26024.7 -03506.2 -07.6729 26259.8
 09 11 2013  00 15  -20.9923 26024.7 -03506.2 -07.6730 26259.8
 09 11 2013  00 16  -20.9924 26024.7 -03506.2 -07.6730 26259.8
 09 11 2013  00 17  -20.9924 26024.7 -03506.2 -07.6729 26259.8
 09 11 2013  00 18  -20.9924 26024.4 -03506.1 -07.6728 26259.6
 09 11 2013  00 19  -20.9923 26024.4 -03506.0 -07.6727 26259.5
 09 11 2013  00 20  -20.9920 26024.4 -03506.0 -07.6727 26259.5
 09 11 2013  00 21  -20.9917 26024.3 -03506.0 -07.6726 26259.4
 09 11 2013  00 22  -20.9913 26024.2 -03505.9 -07.6726 26259.3
 09 11 2013  00 23  -20.9913 26024.0 -03505.9 -07.6725 26259.1
 09 11 2013  00 24  -20.9910 26023.8 -03505.8 -07.6724 26258.9
 09 11 2013  00 25  -20.9907 26023.7 -03505.8 -07.6723 26258.8
 09 11 2013  00 26  -20.9906 26023.6 -03505.8 -07.6724 26258.7
 09 11 2013  00 27  -20.9910 26023.5 -03505.8 -07.6725 26258.6
 09 11 2013  00 28  -20.9906 26023.0 -03505.6 -07.6722 26258.1
 09 11 2013  00 29  -20.9905 26022.7 -03505.5 -07.6720 26257.8
 09 11 2013  00 30  -20.9905 26022.4 -03505.4 -07.6719 26257.4
 09 11 2013  00 31  -20.9903 26022.1 -03505.3 -07.6718 26257.1
 09 11 2013  00 32  -20.9900 26022.0 -03505.3 -07.6718 26257.0
 09 11 2013  00 33  -20.9903 26021.9 -03505.3 -07.6719 26256.9
 09 11 2013  00 34  -20.9903 26021.7 -03505.3 -07.6718 26256.7
 09 11 2013  00 35  -20.9902 26021.5 -03505.2 -07.6718 26256.5
 09 11 2013  00 36  -20.9903 26021.4 -03505.3 -07.6719 26256.5
 09 11 2013  00 37  -20.9905 26021.2 -03505.2 -07.6719 26256.3
 09 11 2013  00 38  -20.9907 26021.1 -03505.2 -07.6720 26256.1
 09 11 2013  00 39  -20.9909 26021.2 -03505.3 -07.6721 26256.2
 09 11 2013  00 40  -20.9911 26021.3 -03505.4 -07.6723 26256.3
 09 11 2013  00 41  -20.9913 26021.2 -03505.4 -07.6724 26256.3
 09 11 2013  00 42  -20.9915 26021.3 -03505.5 -07.6725 26256.3
 09 11 2013  00 43  -20.9915 26021.3 -03505.5 -07.6725 26256.3
 09 11 2013  00 44  -20.9913 26021.2 -03505.4 -07.6724 26256.3
 09 11 2013  00 45  -20.9914 26021.2 -03505.4 -07.6723 26256.3
 09 11 2013  00 46  -20.9915 26021.0 -03505.4 -07.6722 26256.1
 09 11 2013  00 47  -20.9916 26020.8 -03505.2 -07.6721 26255.8
 09 11 2013  00 48  -20.9918 26020.7 -03505.2 -07.6720 26255.7
 09 11 2013  00 49  -20.9920 26020.7 -03505.2 -07.6720 26255.7
 09 11 2013  00 50  -20.9924 26020.7 -03505.2 -07.6720 26255.8
 09 11 2013  00 51  -20.9927 26020.5 -03505.1 -07.6719 26255.5
 09 11 2013  00 52  -20.9928 26020.4 -03505.1 -07.6718 26255.4
 09 11 2013  00 53  -20.9931 26020.4 -03505.0 -07.6717 26255.4
 09 11 2013  00 54  -20.9934 26020.5 -03505.1 -07.6718 26255.5
 09 11 2013  00 55  -20.9936 26020.5 -03505.1 -07.6719 26255.5
 09 11 2013  00 56  -20.9938 26020.5 -03505.1 -07.6719 26255.5
 09 11 2013  00 57  -20.9941 26020.4 -03505.0 -07.6717 26255.4
 09 11 2013  00 58  -20.9943 26020.0 -03504.8 -07.6714 26255.0
 09 11 2013  00 59  -20.9944 26019.8 -03504.7 -07.6711 26254.8
 09 11 2013  01 00  -20.9947 26019.7 -03504.6 -07.6711 26254.6
 09 11 2013  01 01  -20.9948 26019.3 -03504.5 -07.6708 26254.3
 09 11 2013  01 02  -20.9949 26019.3 -03504.4 -07.6707 26254.2
 09 11 2013  01 03  -20.9954 26019.1 -03504.4 -07.6707 26254.1
 09 11 2013  01 04  -20.9957 26019.1 -03504.4 -07.6707 26254.0
 09 11 2013  01 05  -20.9959 26019.2 -03504.5 -07.6709 26254.2
 09 11 2013  01 06  -20.9965 26019.0 -03504.4 -07.6708 26254.0
 09 11 2013  01 07  -20.9966 26018.8 -03504.3 -07.6706 26253.7
 09 11 2013  01 08  -20.9972 26018.7 -03504.3 -07.6706 26253.6
 09 11 2013  01 09  -20.9977 26018.4 -03504.2 -07.6705 26253.3
 09 11 2013  01 10  -20.9980 26018.2 -03504.1 -07.6704 26253.1
 09 11 2013  01 11  -20.9987 26018.2 -03504.1 -07.6705 26253.1
 09 11 2013  01 12  -20.9990 26018.1 -03504.1 -07.6704 26253.0
 09 11 2013  01 13  -20.9990 26017.9 -03504.1 -07.6704 26252.8
 09 11 2013  01 14  -20.9988 26017.7 -03504.0 -07.6702 26252.6
 09 11 2013  01 15  -20.9985 26017.7 -03504.0 -07.6703 26252.6
 09 11 2013  01 16  -20.9981 26017.5 -03504.0 -07.6702 26252.4
 09 11 2013  01 17  -20.9980 26017.3 -03504.0 -07.6704 26252.2
 09 11 2013  01 18  -20.9980 26016.9 -03503.8 -07.6702 26251.8
 09 11 2013  01 19  -20.9980 26016.5 -03503.7 -07.6701 26251.4
 09 11 2013  01 20  -20.9982 26016.1 -03503.7 -07.6700 26251.0
 09 11 2013  01 21  -20.9984 26015.8 -03503.6 -07.6699 26250.7
 09 11 2013  01 22  -20.9985 26015.6 -03503.5 -07.6699 26250.4
 09 11 2013  01 23  -20.9986 26015.3 -03503.5 -07.6700 26250.2
 09 11 2013  01 24  -20.9986 26015.2 -03503.6 -07.6701 26250.0
 09 11 2013  01 25  -20.9989 26015.1 -03503.7 -07.6703 26250.0
 09 11 2013  01 26  -20.9989 26015.0 -03503.7 -07.6704 26249.8
 09 11 2013  01 27  -20.9987 26014.9 -03503.7 -07.6704 26249.8
 09 11 2013  01 28  -20.9985 26015.0 -03503.9 -07.6708 26249.9
 09 11 2013  01 29  -20.9981 26015.1 -03504.1 -07.6712 26250.1
 09 11 2013  01 30  -20.9980 26015.2 -03504.2 -07.6715 26250.2
 09 11 2013  01 31  -20.9980 26015.2 -03504.3 -07.6717 26250.2
 09 11 2013  01 32  -20.9981 26015.2 -03504.4 -07.6719 26250.1
 09 11 2013  01 33  -20.9983 26015.0 -03504.4 -07.6720 26250.0
 09 11 2013  01 34  -20.9983 26014.7 -03504.3 -07.6719 26249.7
 09 11 2013  01 35  -20.9982 26014.3 -03504.2 -07.6718 26249.3
 09 11 2013  01 36  -20.9978 26014.0 -03504.1 -07.6717 26249.0
 09 11 2013  01 37  -20.9975 26013.9 -03504.1 -07.6717 26248.9
 09 11 2013  01 38  -20.9976 26014.0 -03504.3 -07.6720 26249.0
 09 11 2013  01 39  -20.9978 26014.1 -03504.5 -07.6724 26249.1
 09 11 2013  01 40  -20.9981 26014.2 -03504.6 -07.6727 26249.2
 09 11 2013  01 41  -20.9984 26014.0 -03504.7 -07.6728 26249.1
 09 11 2013  01 42  -20.9983 26013.4 -03504.4 -07.6724 26248.4
 09 11 2013  01 43  -20.9977 26012.9 -03504.2 -07.6720 26247.8
 09 11 2013  01 44  -20.9975 26013.0 -03504.2 -07.6721 26247.9
 09 11 2013  01 45  -20.9983 26013.4 -03504.6 -07.6728 26248.4
 09 11 2013  01 46  -20.9984 26013.0 -03504.6 -07.6728 26248.0
 09 11 2013  01 47  -20.9985 26012.8 -03504.5 -07.6727 26247.8
 09 11 2013  01 48  -20.9987 26012.6 -03504.4 -07.6726 26247.6
 09 11 2013  01 49  -20.9988 26012.5 -03504.4 -07.6726 26247.5
 09 11 2013  01 50  -20.9986 26012.2 -03504.3 -07.6725 26247.2
 09 11 2013  01 51  -20.9984 26012.2 -03504.3 -07.6726 26247.2
 09 11 2013  01 52  -20.9979 26012.2 -03504.4 -07.6727 26247.1
 09 11 2013  01 53  -20.9971 26012.7 -03504.6 -07.6729 26247.7
 09 11 2013  01 54  -20.9974 26013.7 -03505.2 -07.6741 26248.8
 09 11 2013  01 55  -20.9976 26014.6 -03505.7 -07.6749 26249.7
 09 11 2013  01 56  -20.9977 26015.2 -03506.1 -07.6756 26250.4
 09 11 2013  01 57  -20.9969 26015.6 -03506.3 -07.6758 26250.9
 09 11 2013  01 58  -20.9964 26015.6 -03506.2 -07.6757 26250.8
 09 11 2013  01 59  -20.9962 26015.7 -03506.3 -07.6757 26250.9
 09 11 2013  02 00  -20.9960 26015.6 -03506.1 -07.6756 26250.8
 09 11 2013  02 01  -20.9958 26015.2 -03506.0 -07.6752 26250.4
 09 11 2013  02 02  -20.9961 26015.3 -03506.0 -07.6752 26250.5
 09 11 2013  02 03  -20.9965 26014.9 -03505.8 -07.6750 26250.0
 09 11 2013  02 04  -20.9964 26014.3 -03505.5 -07.6746 26249.4
 09 11 2013  02 05  -20.9964 26013.7 -03505.2 -07.6740 26248.8
 09 11 2013  02 06  -20.9967 26013.0 -03505.0 -07.6737 26248.1
 09 11 2013  02 07  -20.9971 26012.6 -03504.8 -07.6735 26247.6
 09 11 2013  02 08  -20.9978 26012.0 -03504.6 -07.6732 26247.0
 09 11 2013  02 09  -20.9984 26011.5 -03504.4 -07.6730 26246.5
 09 11 2013  02 10  -20.9990 26011.0 -03504.3 -07.6728 26246.0
 09 11 2013  02 11  -20.9995 26010.6 -03504.2 -07.6727 26245.5
 09 11 2013  02 12  -21.0002 26010.1 -03504.0 -07.6725 26245.0
 09 11 2013  02 13  -21.0011 26009.9 -03503.9 -07.6724 26244.8
 09 11 2013  02 14  -21.0028 26009.7 -03504.0 -07.6726 26244.7
 09 11 2013  02 15  -21.0034 26009.1 -03503.8 -07.6724 26244.1
 09 11 2013  02 16  -21.0045 26008.6 -03503.5 -07.6720 26243.5
 09 11 2013  02 17  -21.0052 26008.2 -03503.4 -07.6717 26243.1
 09 11 2013  02 18  -21.0065 26008.0 -03503.3 -07.6717 26242.8
 09 11 2013  02 19  -21.0074 26007.3 -03503.1 -07.6713 26242.2
 09 11 2013  02 20  -21.0074 26006.5 -03502.6 -07.6706 26241.3
 09 11 2013  02 21  -21.0075 26005.9 -03502.3 -07.6701 26240.6
 09 11 2013  02 22  -21.0081 26005.4 -03502.2 -07.6699 26240.2
 09 11 2013  02 23  -21.0086 26005.0 -03502.1 -07.6698 26239.8
 09 11 2013  02 24  -21.0090 26004.7 -03501.9 -07.6696 26239.5
 09 11 2013  02 25  -21.0092 26004.5 -03501.9 -07.6696 26239.2
 09 11 2013  02 26  -21.0093 26004.1 -03501.7 -07.6694 26238.8
 09 11 2013  02 27  -21.0091 26003.7 -03501.6 -07.6692 26238.4
 09 11 2013  02 28  -21.0089 26003.1 -03501.4 -07.6690 26237.8
 09 11 2013  02 29  -21.0085 26002.5 -03501.1 -07.6685 26237.1
 09 11 2013  02 30  -21.0080 26001.8 -03500.9 -07.6681 26236.4
 09 11 2013  02 31  -21.0079 26001.3 -03500.7 -07.6680 26235.9
 09 11 2013  02 32  -21.0085 26001.0 -03500.7 -07.6680 26235.6
 09 11 2013  02 33  -21.0091 26000.8 -03500.8 -07.6683 26235.5
 09 11 2013  02 34  -21.0091 26000.4 -03500.7 -07.6683 26235.1
 09 11 2013  02 35  -21.0090 26000.0 -03500.6 -07.6681 26234.6
 09 11 2013  02 36  -21.0088 25999.7 -03500.6 -07.6681 26234.3
 09 11 2013  02 37  -21.0092 25999.7 -03500.6 -07.6682 26234.3
 09 11 2013  02 38  -21.0095 25999.7 -03500.8 -07.6686 26234.4
 09 11 2013  02 39  -21.0103 26000.0 -03501.0 -07.6690 26234.7
 09 11 2013  02 40  -21.0114 26000.1 -03501.3 -07.6695 26234.8
 09 11 2013  02 41  -21.0118 26000.1 -03501.3 -07.6695 26234.8
 09 11 2013  02 42  -21.0118 25999.8 -03501.2 -07.6694 26234.4
 09 11 2013  02 43  -21.0121 25999.4 -03501.0 -07.6692 26234.1
 09 11 2013  02 44  -21.0125 25999.2 -03501.0 -07.6691 26233.8
 09 11 2013  02 45  -21.0128 25998.7 -03500.8 -07.6689 26233.4
 09 11 2013  02 46  -21.0127 25998.8 -03500.8 -07.6689 26233.4
 09 11 2013  02 47  -21.0130 25997.5 -03500.3 -07.6682 26232.1
 09 11 2013  02 48  -21.0129 25997.8 -03500.4 -07.6683 26232.4
 09 11 2013  02 49  -21.0132 25997.1 -03500.2 -07.6680 26231.6
 09 11 2013  02 50  -21.0127 25997.7 -03500.5 -07.6685 26232.3
 09 11 2013  02 51  -21.0130 25997.6 -03500.6 -07.6688 26232.2
 09 11 2013  02 52  -21.0129 25998.2 -03500.9 -07.6693 26232.9
 09 11 2013  02 53  -21.0127 25998.2 -03501.0 -07.6695 26232.8
 09 11 2013  02 54  -21.0119 25998.9 -03501.4 -07.6701 26233.6
 09 11 2013  02 55  -21.0116 25999.2 -03501.6 -07.6705 26234.0
 09 11 2013  02 56  -21.0117 25999.5 -03501.9 -07.6710 26234.3
 09 11 2013  02 57  -21.0112 25999.5 -03501.9 -07.6711 26234.3
 09 11 2013  02 58  -21.0107 25999.3 -03501.9 -07.6710 26234.1
 09 11 2013  02 59  -21.0097 25998.9 -03501.7 -07.6707 26233.7
 09 11 2013  03 00  -21.0097 25998.5 -03501.5 -07.6705 26233.3
 09 11 2013  03 01  -21.0103 25998.9 -03501.7 -07.6709 26233.6
 09 11 2013  03 02  -21.0114 26000.1 -03502.4 -07.6720 26234.9
 09 11 2013  03 03  -21.0121 26000.7 -03503.0 -07.6731 26235.7
 09 11 2013  03 04  -21.0105 26000.7 -03502.9 -07.6729 26235.6
 09 11 2013  03 05  -21.0098 25999.2 -03502.2 -07.6718 26234.0
 09 11 2013  03 06  -21.0100 25999.2 -03502.2 -07.6718 26234.0
 09 11 2013  03 07  -21.0108 25998.7 -03502.0 -07.6714 26233.5
 09 11 2013  03 08  -21.0121 25997.9 -03501.8 -07.6712 26232.7
 09 11 2013  03 09  -21.0120 25997.8 -03501.7 -07.6710 26232.6
 09 11 2013  03 10  -21.0109 25998.0 -03501.8 -07.6712 26232.7
 09 11 2013  03 11  -21.0109 25997.9 -03501.7 -07.6711 26232.6
 09 11 2013  03 12  -21.0120 25997.9 -03502.0 -07.6717 26232.7
 09 11 2013  03 13  -21.0123 25998.8 -03502.3 -07.6722 26233.6
 09 11 2013  03 14  -21.0135 25999.1 -03502.6 -07.6728 26233.9
 09 11 2013  03 15  -21.0143 25999.8 -03503.0 -07.6734 26234.8
 09 11 2013  03 16  -21.0158 26000.4 -03503.4 -07.6740 26235.4
 09 11 2013  03 17  -21.0167 26000.8 -03503.6 -07.6743 26235.8
 09 11 2013  03 18  -21.0172 26001.3 -03503.7 -07.6745 26236.3
 09 11 2013  03 19  -21.0177 26001.3 -03503.7 -07.6745 26236.3
 09 11 2013  03 20  -21.0170 26000.9 -03503.4 -07.6739 26235.9
 09 11 2013  03 21  -21.0168 25999.8 -03502.8 -07.6728 26234.6
 09 11 2013  03 22  -21.0161 25998.6 -03502.2 -07.6719 26233.4
 09 11 2013  03 23  -21.0159 25997.7 -03501.7 -07.6711 26232.5
 09 11 2013  03 24  -21.0162 25997.3 -03501.5 -07.6709 26232.0
 09 11 2013  03 25  -21.0165 25997.0 -03501.6 -07.6711 26231.8
 09 11 2013  03 26  -21.0163 25997.0 -03501.6 -07.6712 26231.8
 09 11 2013  03 27  -21.0163 25997.4 -03501.9 -07.6717 26232.2
 09 11 2013  03 28  -21.0163 25998.0 -03502.3 -07.6724 26232.8
 09 11 2013  03 29  -21.0163 25998.5 -03502.7 -07.6731 26233.4
 09 11 2013  03 30  -21.0163 25998.9 -03503.0 -07.6736 26233.8
 09 11 2013  03 31  -21.0163 25999.0 -03503.2 -07.6739 26234.0
 09 11 2013  03 32  -21.0159 25999.0 -03503.2 -07.6739 26233.9
 09 11 2013  03 33  -21.0160 25998.8 -03503.1 -07.6739 26233.7
 09 11 2013  03 34  -21.0162 25998.6 -03503.1 -07.6739 26233.5
 09 11 2013  03 35  -21.0166 25998.2 -03503.0 -07.6739 26233.2
 09 11 2013  03 36  -21.0171 25997.6 -03502.8 -07.6735 26232.5
 09 11 2013  03 37  -21.0179 25997.2 -03502.7 -07.6734 26232.1
 09 11 2013  03 38  -21.0182 25996.9 -03502.6 -07.6732 26231.8
 09 11 2013  03 39  -21.0184 25996.5 -03502.4 -07.6731 26231.4
 09 11 2013  03 40  -21.0191 25995.5 -03502.1 -07.6727 26230.4
 09 11 2013  03 41  -21.0213 25994.8 -03501.9 -07.6724 26229.7
 09 11 2013  03 42  -21.0238 25993.9 -03501.7 -07.6722 26228.7
 09 11 2013  03 43  -21.0258 25993.2 -03501.4 -07.6718 26228.0
 09 11 2013  03 44  -21.0275 25993.0 -03501.3 -07.6716 26227.7
 09 11 2013  03 45  -21.0280 25993.1 -03501.3 -07.6716 26227.9
 09 11 2013  03 46  -21.0286 25992.9 -03501.2 -07.6716 26227.6
 09 11 2013  03 47  -21.0291 25992.8 -03501.2 -07.6715 26227.5
 09 11 2013  03 48  -21.0288 25992.7 -03501.1 -07.6714 26227.4
 09 11 2013  03 49  -21.0284 25992.4 -03501.1 -07.6713 26227.1
 09 11 2013  03 50  -21.0281 25992.1 -03501.0 -07.6713 26226.8
 09 11 2013  03 51  -21.0280 25992.0 -03501.0 -07.6713 26226.7
 09 11 2013  03 52  -21.0280 25992.0 -03501.1 -07.6715 26226.8
 09 11 2013  03 53  -21.0281 25992.2 -03501.3 -07.6718 26227.0
 09 11 2013  03 54  -21.0281 25992.3 -03501.4 -07.6721 26227.1
 09 11 2013  03 55  -21.0286 25992.8 -03501.7 -07.6727 26227.6
 09 11 2013  03 56  -21.0283 25993.0 -03501.9 -07.6730 26227.9
 09 11 2013  03 57  -21.0276 25993.2 -03502.0 -07.6732 26228.0
 09 11 2013  03 58  -21.0275 25993.2 -03502.1 -07.6734 26228.1
 09 11 2013  03 59  -21.0276 25993.3 -03502.2 -07.6736 26228.2
 09 11 2013  04 00  -21.0270 25993.1 -03502.2 -07.6735 26228.0
 09 11 2013  04 01  -21.0276 25992.9 -03502.2 -07.6736 26227.8
 09 11 2013  04 02  -21.0283 25992.2 -03501.9 -07.6731 26227.0
 09 11 2013  04 03  -21.0293 25991.6 -03501.6 -07.6728 26226.4
 09 11 2013  04 04  -21.0309 25991.1 -03501.4 -07.6725 26225.9
 09 11 2013  04 05  -21.0320 25990.7 -03501.3 -07.6723 26225.5
 09 11 2013  04 06  -21.0331 25990.5 -03501.2 -07.6722 26225.3
 09 11 2013  04 07  -21.0339 25990.1 -03501.0 -07.6719 26224.8
 09 11 2013  04 08  -21.0342 25989.9 -03500.9 -07.6717 26224.7
 09 11 2013  04 09  -21.0342 25990.2 -03501.1 -07.6720 26225.0
 09 11 2013  04 10  -21.0336 25990.8 -03501.3 -07.6724 26225.6
 09 11 2013  04 11  -21.0336 25991.5 -03501.8 -07.6731 26226.3
 09 11 2013  04 12  -21.0337 25992.2 -03502.2 -07.6738 26227.1
 09 11 2013  04 13  -21.0338 25992.9 -03502.6 -07.6745 26227.8
 09 11 2013  04 14  -21.0339 25992.9 -03502.7 -07.6746 26227.9
 09 11 2013  04 15  -21.0339 25992.7 -03502.6 -07.6745 26227.7
 09 11 2013  04 16  -21.0345 25992.5 -03502.5 -07.6743 26227.4
 09 11 2013  04 17  -21.0352 25991.9 -03502.2 -07.6739 26226.8
 09 11 2013  04 18  -21.0355 25991.5 -03502.0 -07.6735 26226.4
 09 11 2013  04 19  -21.0357 25990.9 -03501.7 -07.6731 26225.7
 09 11 2013  04 20  -21.0362 25990.8 -03501.6 -07.6730 26225.6
 09 11 2013  04 21  -21.0359 25991.1 -03501.8 -07.6732 26226.0
 09 11 2013  04 22  -21.0358 25991.6 -03502.1 -07.6737 26226.5
 09 11 2013  04 23  -21.0352 25991.5 -03502.1 -07.6737 26226.4
 09 11 2013  04 24  -21.0344 25991.7 -03502.2 -07.6739 26226.6
 09 11 2013  04 25  -21.0349 25991.1 -03502.0 -07.6737 26225.9
 09 11 2013  04 26  -21.0360 25990.7 -03501.9 -07.6736 26225.6
 09 11 2013  04 27  -21.0371 25990.4 -03501.7 -07.6734 26225.3
 09 11 2013  04 28  -21.0381 25990.4 -03501.8 -07.6734 26225.3
 09 11 2013  04 29  -21.0388 25991.1 -03502.0 -07.6737 26225.9
 09 11 2013  04 30  -21.0397 25991.7 -03502.3 -07.6741 26226.6
 09 11 2013  04 31  -21.0397 25991.9 -03502.3 -07.6742 26226.8
 09 11 2013  04 32  -21.0395 25991.7 -03502.2 -07.6739 26226.6
 09 11 2013  04 33  -21.0381 25992.5 -03502.4 -07.6741 26227.5
 09 11 2013  04 34  -21.0363 25992.6 -03502.4 -07.6740 26227.5
 09 11 2013  04 35  -21.0349 25993.2 -03502.6 -07.6744 26228.1
 09 11 2013  04 36  -21.0335 25993.1 -03502.6 -07.6745 26228.0
 09 11 2013  04 37  -21.0317 25993.2 -03502.7 -07.6745 26228.2
 09 11 2013  04 38  -21.0299 25993.2 -03502.7 -07.6747 26228.2
 09 11 2013  04 39  -21.0277 25992.6 -03502.5 -07.6743 26227.5
 09 11 2013  04 40  -21.0246 25991.3 -03501.9 -07.6734 26226.2
 09 11 2013  04 41  -21.0218 25991.2 -03501.8 -07.6733 26226.0
 09 11 2013  04 42  -21.0208 25990.5 -03501.8 -07.6734 26225.4
 09 11 2013  04 43  -21.0198 25990.2 -03501.9 -07.6737 26225.1
 09 11 2013  04 44  -21.0190 25989.5 -03501.8 -07.6737 26224.4
 09 11 2013  04 45  -21.0179 25989.2 -03501.8 -07.6738 26224.1
 09 11 2013  04 46  -21.0176 25989.3 -03502.0 -07.6742 26224.2
 09 11 2013  04 47  -21.0175 25990.1 -03502.6 -07.6752 26225.0
 09 11 2013  04 48  -21.0171 25990.6 -03503.1 -07.6761 26225.7
 09 11 2013  04 49  -21.0170 25991.0 -03503.4 -07.6768 26226.1
 09 11 2013  04 50  -21.0168 25991.5 -03503.8 -07.6774 26226.6
 09 11 2013  04 51  -21.0173 25992.2 -03504.2 -07.6782 26227.4
 09 11 2013  04 52  -21.0180 25993.1 -03504.8 -07.6791 26228.3
 09 11 2013  04 53  -21.0184 25993.9 -03505.1 -07.6797 26229.1
 09 11 2013  04 54  -21.0187 25994.4 -03505.3 -07.6800 26229.7
 09 11 2013  04 55  -21.0184 25994.7 -03505.4 -07.6801 26230.0
 09 11 2013  04 56  -21.0172 25995.0 -03505.4 -07.6800 26230.3
 09 11 2013  04 57  -21.0153 25995.0 -03505.3 -07.6798 26230.3
 09 11 2013  04 58  -21.0141 25995.4 -03505.5 -07.6800 26230.7
 09 11 2013  04 59  -21.0140 25995.5 -03505.6 -07.6801 26230.8
 09 11 2013  05 00  -21.0144 25995.9 -03505.8 -07.6806 26231.3
 09 11 2013  05 01  -21.0150 25996.6 -03506.2 -07.6811 26232.0
 09 11 2013  05 02  -21.0152 25997.1 -03506.4 -07.6816 26232.5
 09 11 2013  05 03  -21.0154 25997.0 -03506.4 -07.6815 26232.4
 09 11 2013  05 04  -21.0155 25996.9 -03506.2 -07.6811 26232.3
 09 11 2013  05 05  -21.0157 25996.5 -03506.0 -07.6808 26231.9
 09 11 2013  05 06  -21.0155 25996.1 -03505.7 -07.6803 26231.4
 09 11 2013  05 07  -21.0155 25995.8 -03505.5 -07.6798 26231.1
 09 11 2013  05 08  -21.0152 25996.0 -03505.5 -07.6799 26231.3
 09 11 2013  05 09  -21.0149 25996.3 -03505.6 -07.6800 26231.6
 09 11 2013  05 10  -21.0145 25996.5 -03505.7 -07.6802 26231.8
 09 11 2013  05 11  -21.0143 25996.7 -03505.8 -07.6804 26232.1
 09 11 2013  05 12  -21.0143 25997.1 -03506.0 -07.6807 26232.4
 09 11 2013  05 13  -21.0144 25997.3 -03506.2 -07.6810 26232.7
 09 11 2013  05 14  -21.0148 25997.6 -03506.3 -07.6812 26233.0
