SAO LUIS EMBRACE-03 <307> 1 Min. Reported data

 DD MM YYYY  HH MM   D(Deg)  H(nT)   Z(nT)   I(Deg)   F(nT)

 03 11 2013  00 00  -21.0217 26013.5 -03499.1 -07.6608 26247.8
 03 11 2013  00 01  -21.0213 26013.5 -03499.1 -07.6609 26247.7
 03 11 2013  00 02  -21.0211 26013.4 -03499.1 -07.6610 26247.7
 03 11 2013  00 03  -21.0210 26013.4 -03499.2 -07.6612 26247.7
 03 11 2013  00 04  -21.0209 26013.5 -03499.3 -07.6613 26247.8
 03 11 2013  00 05  -21.0210 26013.4 -03499.4 -07.6615 26247.8
 03 11 2013  00 06  -21.0210 26013.4 -03499.4 -07.6615 26247.7
 03 11 2013  00 07  -21.0212 26013.4 -03499.4 -07.6617 26247.7
 03 11 2013  00 08  -21.0213 26013.4 -03499.5 -07.6617 26247.7
 03 11 2013  00 09  -21.0214 26013.4 -03499.5 -07.6619 26247.8
 03 11 2013  00 10  -21.0216 26013.5 -03499.6 -07.6621 26247.9
 03 11 2013  00 11  -21.0218 26013.5 -03499.7 -07.6621 26247.8
 03 11 2013  00 12  -21.0222 26013.5 -03499.7 -07.6622 26247.8
 03 11 2013  00 13  -21.0226 26013.5 -03499.7 -07.6623 26247.9
 03 11 2013  00 14  -21.0229 26013.5 -03499.7 -07.6623 26247.8
 03 11 2013  00 15  -21.0233 26013.3 -03499.7 -07.6622 26247.7
 03 11 2013  00 16  -21.0236 26013.1 -03499.6 -07.6620 26247.4
 03 11 2013  00 17  -21.0239 26013.0 -03499.6 -07.6620 26247.4
 03 11 2013  00 18  -21.0245 26013.0 -03499.6 -07.6621 26247.4
 03 11 2013  00 19  -21.0250 26012.9 -03499.6 -07.6621 26247.3
 03 11 2013  00 20  -21.0253 26012.8 -03499.5 -07.6620 26247.2
 03 11 2013  00 21  -21.0252 26012.7 -03499.5 -07.6619 26247.0
 03 11 2013  00 22  -21.0252 26012.6 -03499.4 -07.6619 26247.0
 03 11 2013  00 23  -21.0252 26012.6 -03499.4 -07.6619 26246.9
 03 11 2013  00 24  -21.0249 26012.5 -03499.4 -07.6618 26246.8
 03 11 2013  00 25  -21.0246 26012.4 -03499.4 -07.6618 26246.7
 03 11 2013  00 26  -21.0242 26012.3 -03499.4 -07.6619 26246.6
 03 11 2013  00 27  -21.0241 26012.1 -03499.4 -07.6619 26246.4
 03 11 2013  00 28  -21.0238 26011.9 -03499.4 -07.6620 26246.3
 03 11 2013  00 29  -21.0237 26011.8 -03499.4 -07.6620 26246.1
 03 11 2013  00 30  -21.0238 26011.7 -03499.4 -07.6621 26246.0
 03 11 2013  00 31  -21.0239 26011.5 -03499.4 -07.6622 26245.9
 03 11 2013  00 32  -21.0239 26011.3 -03499.4 -07.6623 26245.7
 03 11 2013  00 33  -21.0239 26011.1 -03499.4 -07.6623 26245.5
 03 11 2013  00 34  -21.0237 26011.0 -03499.4 -07.6624 26245.3
 03 11 2013  00 35  -21.0233 26010.9 -03499.5 -07.6625 26245.2
 03 11 2013  00 36  -21.0231 26010.9 -03499.6 -07.6627 26245.2
 03 11 2013  00 37  -21.0230 26010.8 -03499.6 -07.6629 26245.2
 03 11 2013  00 38  -21.0230 26010.7 -03499.7 -07.6631 26245.1
 03 11 2013  00 39  -21.0227 26010.6 -03499.8 -07.6632 26245.0
 03 11 2013  00 40  -21.0226 26010.6 -03499.8 -07.6634 26245.0
 03 11 2013  00 41  -21.0223 26010.5 -03499.9 -07.6635 26244.9
 03 11 2013  00 42  -21.0222 26010.5 -03500.0 -07.6638 26244.9
 03 11 2013  00 43  -21.0221 26010.5 -03500.2 -07.6641 26245.0
 03 11 2013  00 44  -21.0222 26010.6 -03500.4 -07.6645 26245.0
 03 11 2013  00 45  -21.0222 26010.5 -03500.5 -07.6647 26245.0
 03 11 2013  00 46  -21.0222 26010.6 -03500.6 -07.6650 26245.1
 03 11 2013  00 47  -21.0220 26010.7 -03500.8 -07.6654 26245.2
 03 11 2013  00 48  -21.0219 26010.7 -03500.9 -07.6655 26245.3
 03 11 2013  00 49  -21.0219 26010.8 -03501.0 -07.6658 26245.4
 03 11 2013  00 50  -21.0217 26011.0 -03501.2 -07.6662 26245.6
 03 11 2013  00 51  -21.0219 26010.9 -03501.3 -07.6663 26245.5
 03 11 2013  00 52  -21.0215 26010.8 -03501.3 -07.6664 26245.4
 03 11 2013  00 53  -21.0213 26010.9 -03501.3 -07.6665 26245.5
 03 11 2013  00 54  -21.0216 26010.8 -03501.4 -07.6667 26245.5
 03 11 2013  00 55  -21.0217 26010.9 -03501.5 -07.6669 26245.6
 03 11 2013  00 56  -21.0218 26010.9 -03501.6 -07.6671 26245.6
 03 11 2013  00 57  -21.0220 26010.9 -03501.7 -07.6672 26245.5
 03 11 2013  00 58  -21.0220 26010.9 -03501.7 -07.6673 26245.6
 03 11 2013  00 59  -21.0221 26011.3 -03502.0 -07.6677 26246.0
 03 11 2013  01 00  -21.0222 26011.7 -03502.3 -07.6682 26246.5
 03 11 2013  01 01  -21.0224 26012.1 -03502.4 -07.6686 26246.8
 03 11 2013  01 02  -21.0226 26012.1 -03502.6 -07.6688 26246.8
 03 11 2013  01 03  -21.0230 26012.3 -03502.7 -07.6690 26247.0
 03 11 2013  01 04  -21.0234 26012.4 -03502.7 -07.6691 26247.1
 03 11 2013  01 05  -21.0237 26012.4 -03502.8 -07.6693 26247.2
 03 11 2013  01 06  -21.0242 26012.6 -03502.9 -07.6693 26247.4
 03 11 2013  01 07  -21.0246 26012.6 -03502.9 -07.6694 26247.4
 03 11 2013  01 08  -21.0247 26012.6 -03502.9 -07.6694 26247.4
 03 11 2013  01 09  -21.0247 26012.5 -03502.8 -07.6693 26247.3
 03 11 2013  01 10  -21.0246 26012.4 -03502.8 -07.6691 26247.2
 03 11 2013  01 11  -21.0242 26012.4 -03502.8 -07.6691 26247.2
 03 11 2013  01 12  -21.0241 26012.2 -03502.7 -07.6690 26247.0
 03 11 2013  01 13  -21.0239 26012.4 -03502.8 -07.6692 26247.2
 03 11 2013  01 14  -21.0238 26012.5 -03502.8 -07.6693 26247.3
 03 11 2013  01 15  -21.0237 26012.5 -03502.9 -07.6694 26247.3
 03 11 2013  01 16  -21.0236 26012.6 -03503.0 -07.6695 26247.4
 03 11 2013  01 17  -21.0239 26012.5 -03503.0 -07.6696 26247.3
 03 11 2013  01 18  -21.0243 26012.5 -03502.9 -07.6695 26247.3
 03 11 2013  01 19  -21.0249 26012.4 -03503.0 -07.6696 26247.2
 03 11 2013  01 20  -21.0255 26012.4 -03503.0 -07.6696 26247.2
 03 11 2013  01 21  -21.0259 26012.4 -03503.0 -07.6696 26247.2
 03 11 2013  01 22  -21.0261 26012.3 -03502.9 -07.6695 26247.1
 03 11 2013  01 23  -21.0263 26012.2 -03502.9 -07.6694 26247.0
 03 11 2013  01 24  -21.0267 26012.1 -03502.8 -07.6693 26246.9
 03 11 2013  01 25  -21.0271 26012.1 -03502.7 -07.6692 26246.9
 03 11 2013  01 26  -21.0276 26012.0 -03502.7 -07.6690 26246.7
 03 11 2013  01 27  -21.0284 26011.8 -03502.6 -07.6690 26246.6
 03 11 2013  01 28  -21.0293 26011.6 -03502.5 -07.6688 26246.4
 03 11 2013  01 29  -21.0301 26011.5 -03502.4 -07.6687 26246.2
 03 11 2013  01 30  -21.0308 26011.4 -03502.4 -07.6686 26246.2
 03 11 2013  01 31  -21.0313 26011.4 -03502.3 -07.6684 26246.1
 03 11 2013  01 32  -21.0316 26011.4 -03502.3 -07.6684 26246.1
 03 11 2013  01 33  -21.0318 26011.4 -03502.2 -07.6683 26246.1
 03 11 2013  01 34  -21.0319 26011.4 -03502.2 -07.6683 26246.1
 03 11 2013  01 35  -21.0320 26011.6 -03502.3 -07.6684 26246.3
 03 11 2013  01 36  -21.0320 26011.8 -03502.4 -07.6686 26246.5
 03 11 2013  01 37  -21.0317 26012.2 -03502.6 -07.6689 26246.9
 03 11 2013  01 38  -21.0314 26012.4 -03502.7 -07.6689 26247.2
 03 11 2013  01 39  -21.0312 26012.5 -03502.7 -07.6690 26247.3
 03 11 2013  01 40  -21.0309 26012.9 -03502.9 -07.6692 26247.7
 03 11 2013  01 41  -21.0306 26013.2 -03503.0 -07.6695 26248.0
 03 11 2013  01 42  -21.0303 26013.6 -03503.2 -07.6698 26248.4
 03 11 2013  01 43  -21.0296 26014.0 -03503.4 -07.6700 26248.8
 03 11 2013  01 44  -21.0291 26014.1 -03503.4 -07.6701 26248.9
 03 11 2013  01 45  -21.0286 26014.1 -03503.4 -07.6700 26249.0
 03 11 2013  01 46  -21.0279 26014.3 -03503.4 -07.6700 26249.2
 03 11 2013  01 47  -21.0273 26014.6 -03503.6 -07.6703 26249.5
 03 11 2013  01 48  -21.0267 26014.8 -03503.6 -07.6704 26249.7
 03 11 2013  01 49  -21.0262 26014.9 -03503.7 -07.6704 26249.8
 03 11 2013  01 50  -21.0258 26015.0 -03503.7 -07.6704 26249.9
 03 11 2013  01 51  -21.0256 26015.1 -03503.7 -07.6704 26250.0
 03 11 2013  01 52  -21.0254 26015.3 -03503.8 -07.6705 26250.2
 03 11 2013  01 53  -21.0254 26015.6 -03503.9 -07.6707 26250.5
 03 11 2013  01 54  -21.0255 26015.8 -03504.0 -07.6708 26250.7
 03 11 2013  01 55  -21.0254 26016.0 -03504.1 -07.6710 26250.9
 03 11 2013  01 56  -21.0254 26016.2 -03504.1 -07.6710 26251.1
 03 11 2013  01 57  -21.0256 26016.5 -03504.3 -07.6712 26251.5
 03 11 2013  01 58  -21.0258 26016.8 -03504.4 -07.6714 26251.8
 03 11 2013  01 59  -21.0258 26017.1 -03504.5 -07.6714 26252.1
 03 11 2013  02 00  -21.0259 26017.4 -03504.5 -07.6715 26252.4
 03 11 2013  02 01  -21.0260 26017.8 -03504.6 -07.6717 26252.8
 03 11 2013  02 02  -21.0263 26017.9 -03504.7 -07.6717 26252.9
 03 11 2013  02 03  -21.0261 26018.3 -03504.7 -07.6717 26253.3
 03 11 2013  02 04  -21.0261 26018.4 -03504.7 -07.6715 26253.4
 03 11 2013  02 05  -21.0260 26018.7 -03504.7 -07.6715 26253.7
 03 11 2013  02 06  -21.0259 26018.8 -03504.7 -07.6714 26253.8
 03 11 2013  02 07  -21.0257 26018.9 -03504.6 -07.6711 26253.9
 03 11 2013  02 08  -21.0255 26018.9 -03504.5 -07.6710 26253.9
 03 11 2013  02 09  -21.0253 26018.9 -03504.4 -07.6707 26253.8
 03 11 2013  02 10  -21.0252 26018.8 -03504.2 -07.6704 26253.7
 03 11 2013  02 11  -21.0251 26018.6 -03504.0 -07.6701 26253.5
 03 11 2013  02 12  -21.0251 26018.7 -03503.9 -07.6699 26253.6
 03 11 2013  02 13  -21.0256 26018.6 -03503.9 -07.6698 26253.4
 03 11 2013  02 14  -21.0261 26018.5 -03503.8 -07.6696 26253.3
 03 11 2013  02 15  -21.0267 26018.5 -03503.7 -07.6695 26253.3
 03 11 2013  02 16  -21.0272 26018.4 -03503.6 -07.6693 26253.2
 03 11 2013  02 17  -21.0273 26018.3 -03503.5 -07.6689 26253.1
 03 11 2013  02 18  -21.0273 26018.0 -03503.2 -07.6686 26252.8
 03 11 2013  02 19  -21.0271 26017.9 -03503.1 -07.6682 26252.7
 03 11 2013  02 20  -21.0270 26017.8 -03503.0 -07.6680 26252.5
 03 11 2013  02 21  -21.0270 26017.5 -03502.8 -07.6678 26252.3
 03 11 2013  02 22  -21.0269 26017.3 -03502.7 -07.6676 26252.1
 03 11 2013  02 23  -21.0267 26017.2 -03502.6 -07.6674 26251.9
 03 11 2013  02 24  -21.0264 26017.0 -03502.4 -07.6671 26251.6
 03 11 2013  02 25  -21.0256 26016.6 -03502.3 -07.6669 26251.3
 03 11 2013  02 26  -21.0248 26016.4 -03502.1 -07.6666 26251.0
 03 11 2013  02 27  -21.0241 26016.1 -03502.0 -07.6664 26250.7
 03 11 2013  02 28  -21.0233 26015.8 -03501.9 -07.6664 26250.5
 03 11 2013  02 29  -21.0226 26015.7 -03501.9 -07.6664 26250.3
 03 11 2013  02 30  -21.0218 26015.5 -03501.9 -07.6663 26250.1
 03 11 2013  02 31  -21.0212 26015.4 -03501.9 -07.6665 26250.1
 03 11 2013  02 32  -21.0209 26015.4 -03502.1 -07.6668 26250.1
 03 11 2013  02 33  -21.0211 26015.6 -03502.2 -07.6671 26250.2
 03 11 2013  02 34  -21.0211 26015.6 -03502.4 -07.6675 26250.3
 03 11 2013  02 35  -21.0211 26015.7 -03502.5 -07.6677 26250.4
 03 11 2013  02 36  -21.0212 26015.6 -03502.6 -07.6679 26250.3
 03 11 2013  02 37  -21.0215 26015.6 -03502.6 -07.6679 26250.4
 03 11 2013  02 38  -21.0217 26015.6 -03502.7 -07.6681 26250.4
 03 11 2013  02 39  -21.0218 26015.7 -03502.8 -07.6682 26250.5
 03 11 2013  02 40  -21.0220 26015.7 -03502.8 -07.6683 26250.4
 03 11 2013  02 41  -21.0221 26015.8 -03502.9 -07.6685 26250.5
 03 11 2013  02 42  -21.0224 26015.9 -03503.0 -07.6686 26250.7
 03 11 2013  02 43  -21.0226 26015.9 -03503.1 -07.6688 26250.7
 03 11 2013  02 44  -21.0228 26016.0 -03503.1 -07.6689 26250.8
 03 11 2013  02 45  -21.0229 26016.0 -03503.1 -07.6689 26250.8
 03 11 2013  02 46  -21.0228 26015.9 -03503.1 -07.6688 26250.7
 03 11 2013  02 47  -21.0228 26015.8 -03503.1 -07.6688 26250.6
 03 11 2013  02 48  -21.0227 26015.7 -03503.1 -07.6689 26250.5
 03 11 2013  02 49  -21.0226 26015.6 -03503.0 -07.6688 26250.4
 03 11 2013  02 50  -21.0225 26015.4 -03503.0 -07.6688 26250.2
 03 11 2013  02 51  -21.0224 26015.2 -03503.0 -07.6688 26250.0
 03 11 2013  02 52  -21.0222 26015.0 -03502.9 -07.6687 26249.8
 03 11 2013  02 53  -21.0221 26014.9 -03502.9 -07.6687 26249.7
 03 11 2013  02 54  -21.0220 26014.8 -03502.9 -07.6687 26249.6
 03 11 2013  02 55  -21.0220 26014.6 -03502.9 -07.6688 26249.4
 03 11 2013  02 56  -21.0219 26014.5 -03502.9 -07.6689 26249.3
 03 11 2013  02 57  -21.0218 26014.5 -03503.0 -07.6690 26249.3
 03 11 2013  02 58  -21.0218 26014.5 -03503.0 -07.6691 26249.3
 03 11 2013  02 59  -21.0220 26014.6 -03503.2 -07.6694 26249.4
 03 11 2013  03 00  -21.0224 26014.8 -03503.3 -07.6696 26249.7
 03 11 2013  03 01  -21.0228 26015.0 -03503.5 -07.6699 26249.9
 03 11 2013  03 02  -21.0232 26015.1 -03503.6 -07.6702 26250.0
 03 11 2013  03 03  -21.0234 26015.4 -03503.7 -07.6704 26250.3
 03 11 2013  03 04  -21.0236 26015.6 -03503.9 -07.6706 26250.5
 03 11 2013  03 05  -21.0237 26015.8 -03504.0 -07.6707 26250.7
 03 11 2013  03 06  -21.0239 26016.0 -03504.0 -07.6708 26250.9
 03 11 2013  03 07  -21.0239 26016.0 -03504.0 -07.6708 26250.9
 03 11 2013  03 08  -21.0237 26016.0 -03503.9 -07.6707 26250.9
 03 11 2013  03 09  -21.0237 26015.9 -03503.9 -07.6706 26250.8
 03 11 2013  03 10  -21.0234 26015.7 -03503.8 -07.6704 26250.6
 03 11 2013  03 11  -21.0232 26015.5 -03503.6 -07.6702 26250.4
 03 11 2013  03 12  -21.0231 26015.4 -03503.6 -07.6700 26250.3
 03 11 2013  03 13  -21.0230 26015.4 -03503.6 -07.6700 26250.2
 03 11 2013  03 14  -21.0231 26015.4 -03503.6 -07.6701 26250.3
 03 11 2013  03 15  -21.0235 26015.4 -03503.6 -07.6700 26250.3
 03 11 2013  03 16  -21.0239 26015.4 -03503.6 -07.6701 26250.2
 03 11 2013  03 17  -21.0243 26015.4 -03503.6 -07.6702 26250.3
 03 11 2013  03 18  -21.0246 26015.5 -03503.6 -07.6701 26250.4
 03 11 2013  03 19  -21.0249 26015.5 -03503.6 -07.6701 26250.4
 03 11 2013  03 20  -21.0252 26015.6 -03503.7 -07.6701 26250.5
 03 11 2013  03 21  -21.0254 26015.7 -03503.6 -07.6701 26250.5
 03 11 2013  03 22  -21.0256 26015.7 -03503.7 -07.6701 26250.6
 03 11 2013  03 23  -21.0258 26015.8 -03503.7 -07.6701 26250.7
 03 11 2013  03 24  -21.0260 26016.0 -03503.7 -07.6702 26250.8
 03 11 2013  03 25  -21.0263 26016.1 -03503.7 -07.6702 26250.9
 03 11 2013  03 26  -21.0264 26016.2 -03503.7 -07.6701 26251.0
 03 11 2013  03 27  -21.0267 26016.2 -03503.7 -07.6701 26251.1
 03 11 2013  03 28  -21.0268 26016.3 -03503.7 -07.6701 26251.2
 03 11 2013  03 29  -21.0269 26016.3 -03503.7 -07.6700 26251.2
 03 11 2013  03 30  -21.0270 26016.3 -03503.7 -07.6700 26251.2
 03 11 2013  03 31  -21.0269 26016.3 -03503.6 -07.6699 26251.2
 03 11 2013  03 32  -21.0268 26016.4 -03503.6 -07.6698 26251.2
 03 11 2013  03 33  -21.0267 26016.4 -03503.6 -07.6698 26251.3
 03 11 2013  03 34  -21.0266 26016.5 -03503.6 -07.6697 26251.3
 03 11 2013  03 35  -21.0265 26016.4 -03503.6 -07.6697 26251.3
 03 11 2013  03 36  -21.0263 26016.4 -03503.5 -07.6696 26251.2
 03 11 2013  03 37  -21.0260 26016.4 -03503.5 -07.6695 26251.2
 03 11 2013  03 38  -21.0258 26016.4 -03503.5 -07.6696 26251.2
 03 11 2013  03 39  -21.0257 26016.5 -03503.6 -07.6697 26251.3
 03 11 2013  03 40  -21.0258 26016.5 -03503.6 -07.6698 26251.4
 03 11 2013  03 41  -21.0257 26016.5 -03503.6 -07.6697 26251.3
 03 11 2013  03 42  -21.0256 26016.4 -03503.5 -07.6697 26251.2
 03 11 2013  03 43  -21.0253 26016.3 -03503.5 -07.6696 26251.1
 03 11 2013  03 44  -21.0249 26016.2 -03503.4 -07.6695 26251.0
 03 11 2013  03 45  -21.0246 26016.1 -03503.4 -07.6695 26251.0
 03 11 2013  03 46  -21.0246 26016.1 -03503.4 -07.6695 26250.9
 03 11 2013  03 47  -21.0246 26016.1 -03503.5 -07.6696 26251.0
 03 11 2013  03 48  -21.0247 26016.1 -03503.5 -07.6697 26251.0
 03 11 2013  03 49  -21.0246 26016.0 -03503.5 -07.6697 26250.9
 03 11 2013  03 50  -21.0245 26016.0 -03503.5 -07.6696 26250.8
 03 11 2013  03 51  -21.0244 26015.9 -03503.4 -07.6696 26250.7
 03 11 2013  03 52  -21.0244 26015.8 -03503.4 -07.6696 26250.6
 03 11 2013  03 53  -21.0243 26015.8 -03503.4 -07.6695 26250.6
 03 11 2013  03 54  -21.0241 26015.7 -03503.4 -07.6695 26250.5
 03 11 2013  03 55  -21.0240 26015.5 -03503.4 -07.6695 26250.4
 03 11 2013  03 56  -21.0237 26015.4 -03503.3 -07.6695 26250.3
 03 11 2013  03 57  -21.0234 26015.4 -03503.3 -07.6695 26250.2
 03 11 2013  03 58  -21.0233 26015.3 -03503.4 -07.6697 26250.2
 03 11 2013  03 59  -21.0232 26015.3 -03503.4 -07.6697 26250.1
 03 11 2013  04 00  -21.0232 26015.3 -03503.5 -07.6698 26250.2
 03 11 2013  04 01  -21.0232 26015.5 -03503.6 -07.6701 26250.3
 03 11 2013  04 02  -21.0232 26015.6 -03503.7 -07.6703 26250.5
 03 11 2013  04 03  -21.0232 26015.7 -03503.8 -07.6705 26250.6
 03 11 2013  04 04  -21.0235 26015.8 -03503.9 -07.6706 26250.7
 03 11 2013  04 05  -21.0238 26015.8 -03504.0 -07.6707 26250.7
 03 11 2013  04 06  -21.0240 26015.8 -03504.0 -07.6708 26250.7
 03 11 2013  04 07  -21.0243 26015.7 -03504.0 -07.6708 26250.6
 03 11 2013  04 08  -21.0243 26015.6 -03503.9 -07.6708 26250.5
 03 11 2013  04 09  -21.0244 26015.6 -03503.9 -07.6707 26250.5
 03 11 2013  04 10  -21.0248 26015.5 -03503.9 -07.6707 26250.4
 03 11 2013  04 11  -21.0252 26015.5 -03503.9 -07.6707 26250.5
 03 11 2013  04 12  -21.0259 26015.6 -03504.0 -07.6709 26250.5
 03 11 2013  04 13  -21.0264 26015.6 -03504.0 -07.6709 26250.5
 03 11 2013  04 14  -21.0268 26015.5 -03504.0 -07.6708 26250.5
 03 11 2013  04 15  -21.0272 26015.6 -03504.0 -07.6708 26250.5
 03 11 2013  04 16  -21.0274 26015.8 -03504.0 -07.6708 26250.7
 03 11 2013  04 17  -21.0275 26016.0 -03504.1 -07.6710 26250.9
 03 11 2013  04 18  -21.0276 26016.2 -03504.2 -07.6711 26251.2
 03 11 2013  04 19  -21.0278 26016.6 -03504.3 -07.6713 26251.5
 03 11 2013  04 20  -21.0281 26016.7 -03504.4 -07.6715 26251.6
 03 11 2013  04 21  -21.0284 26016.9 -03504.5 -07.6715 26251.9
 03 11 2013  04 22  -21.0287 26016.9 -03504.5 -07.6716 26251.9
 03 11 2013  04 23  -21.0289 26017.0 -03504.4 -07.6715 26251.9
 03 11 2013  04 24  -21.0290 26017.0 -03504.4 -07.6714 26252.0
 03 11 2013  04 25  -21.0292 26017.1 -03504.4 -07.6714 26252.0
 03 11 2013  04 26  -21.0294 26017.1 -03504.4 -07.6714 26252.1
 03 11 2013  04 27  -21.0294 26017.1 -03504.4 -07.6713 26252.1
 03 11 2013  04 28  -21.0294 26017.3 -03504.4 -07.6714 26252.2
 03 11 2013  04 29  -21.0294 26017.3 -03504.5 -07.6714 26252.3
 03 11 2013  04 30  -21.0294 26017.5 -03504.5 -07.6714 26252.5
 03 11 2013  04 31  -21.0293 26017.6 -03504.5 -07.6714 26252.6
 03 11 2013  04 32  -21.0293 26017.7 -03504.6 -07.6715 26252.7
 03 11 2013  04 33  -21.0293 26017.9 -03504.6 -07.6715 26252.8
 03 11 2013  04 34  -21.0294 26018.0 -03504.7 -07.6717 26253.0
 03 11 2013  04 35  -21.0296 26018.2 -03504.7 -07.6718 26253.2
 03 11 2013  04 36  -21.0296 26018.3 -03504.8 -07.6718 26253.3
 03 11 2013  04 37  -21.0298 26018.4 -03504.8 -07.6718 26253.4
 03 11 2013  04 38  -21.0298 26018.5 -03504.8 -07.6719 26253.5
 03 11 2013  04 39  -21.0300 26018.6 -03504.9 -07.6719 26253.6
 03 11 2013  04 40  -21.0302 26018.5 -03504.8 -07.6718 26253.5
 03 11 2013  04 41  -21.0302 26018.4 -03504.7 -07.6716 26253.4
 03 11 2013  04 42  -21.0302 26018.2 -03504.6 -07.6714 26253.2
 03 11 2013  04 43  -21.0299 26018.2 -03504.5 -07.6713 26253.2
 03 11 2013  04 44  -21.0300 26018.1 -03504.5 -07.6712 26253.1
 03 11 2013  04 45  -21.0301 26018.1 -03504.5 -07.6712 26253.1
 03 11 2013  04 46  -21.0302 26018.2 -03504.5 -07.6713 26253.1
 03 11 2013  04 47  -21.0302 26018.2 -03504.5 -07.6712 26253.1
 03 11 2013  04 48  -21.0304 26018.3 -03504.5 -07.6713 26253.2
 03 11 2013  04 49  -21.0307 26018.2 -03504.5 -07.6713 26253.2
 03 11 2013  04 50  -21.0309 26018.2 -03504.5 -07.6712 26253.2
 03 11 2013  04 51  -21.0313 26018.3 -03504.5 -07.6713 26253.2
 03 11 2013  04 52  -21.0317 26018.3 -03504.6 -07.6713 26253.3
 03 11 2013  04 53  -21.0320 26018.4 -03504.6 -07.6714 26253.3
 03 11 2013  04 54  -21.0321 26018.4 -03504.6 -07.6714 26253.4
 03 11 2013  04 55  -21.0323 26018.5 -03504.7 -07.6715 26253.5
 03 11 2013  04 56  -21.0324 26018.6 -03504.7 -07.6716 26253.6
 03 11 2013  04 57  -21.0325 26018.8 -03504.8 -07.6717 26253.8
 03 11 2013  04 58  -21.0326 26018.9 -03504.8 -07.6717 26253.9
 03 11 2013  04 59  -21.0326 26019.0 -03504.8 -07.6717 26254.0
 03 11 2013  05 00  -21.0325 26019.0 -03504.8 -07.6717 26254.0
 03 11 2013  05 01  -21.0325 26019.1 -03504.9 -07.6717 26254.1
 03 11 2013  05 02  -21.0324 26019.1 -03504.9 -07.6718 26254.1
 03 11 2013  05 03  -21.0323 26019.1 -03504.9 -07.6718 26254.1
 03 11 2013  05 04  -21.0324 26019.1 -03504.9 -07.6718 26254.1
 03 11 2013  05 05  -21.0322 26019.0 -03504.8 -07.6717 26254.0
 03 11 2013  05 06  -21.0321 26018.9 -03504.8 -07.6717 26253.9
 03 11 2013  05 07  -21.0321 26018.9 -03504.8 -07.6718 26253.9
 03 11 2013  05 08  -21.0320 26018.9 -03504.8 -07.6717 26253.9
 03 11 2013  05 09  -21.0320 26018.8 -03504.8 -07.6717 26253.8
 03 11 2013  05 10  -21.0317 26018.7 -03504.8 -07.6716 26253.7
 03 11 2013  05 11  -21.0315 26018.6 -03504.7 -07.6716 26253.6
 03 11 2013  05 12  -21.0310 26018.5 -03504.6 -07.6714 26253.5
 03 11 2013  05 13  -21.0306 26018.4 -03504.7 -07.6715 26253.4
 03 11 2013  05 14  -21.0304 26018.4 -03504.7 -07.6716 26253.4
