SAO LUIS EMBRACE-03 <214> 1 Min. Reported data

 DD MM YYYY  HH MM   D(Deg)  H(nT)   Z(nT)   I(Deg)   F(nT)

 02 08 2013  00 00  -21.0276 26036.7 -03469.0 -07.5891 26266.8
 02 08 2013  00 01  -21.0279 26036.7 -03469.0 -07.5891 26266.7
 02 08 2013  00 02  -21.0279 26036.6 -03469.0 -07.5891 26266.7
 02 08 2013  00 03  -21.0279 26036.5 -03469.0 -07.5891 26266.6
 02 08 2013  00 04  -21.0280 26036.5 -03468.9 -07.5890 26266.6
 02 08 2013  00 05  -21.0279 26036.5 -03468.9 -07.5890 26266.6
 02 08 2013  00 06  -21.0280 26036.5 -03468.9 -07.5890 26266.5
 02 08 2013  00 07  -21.0279 26036.5 -03468.9 -07.5890 26266.5
 02 08 2013  00 08  -21.0278 26036.5 -03468.9 -07.5890 26266.5
 02 08 2013  00 09  -21.0277 26036.5 -03469.0 -07.5891 26266.6
 02 08 2013  00 10  -21.0275 26036.6 -03469.0 -07.5891 26266.6
 02 08 2013  00 11  -21.0275 26036.5 -03469.0 -07.5891 26266.6
 02 08 2013  00 12  -21.0275 26036.5 -03469.0 -07.5891 26266.6
 02 08 2013  00 13  -21.0274 26036.5 -03469.0 -07.5891 26266.6
 02 08 2013  00 14  -21.0274 26036.5 -03469.0 -07.5891 26266.5
 02 08 2013  00 15  -21.0274 26036.4 -03469.0 -07.5892 26266.5
 02 08 2013  00 16  -21.0273 26036.4 -03469.0 -07.5892 26266.5
 02 08 2013  00 17  -21.0272 26036.3 -03469.0 -07.5891 26266.4
 02 08 2013  00 18  -21.0271 26036.3 -03469.0 -07.5891 26266.4
 02 08 2013  00 19  -21.0271 26036.2 -03469.0 -07.5892 26266.3
 02 08 2013  00 20  -21.0271 26036.1 -03468.9 -07.5891 26266.2
 02 08 2013  00 21  -21.0271 26036.1 -03469.0 -07.5892 26266.1
 02 08 2013  00 22  -21.0270 26035.9 -03468.9 -07.5891 26266.0
 02 08 2013  00 23  -21.0271 26035.9 -03468.9 -07.5891 26266.0
 02 08 2013  00 24  -21.0270 26035.8 -03468.9 -07.5891 26265.8
 02 08 2013  00 25  -21.0270 26035.6 -03468.8 -07.5891 26265.7
 02 08 2013  00 26  -21.0270 26035.6 -03468.8 -07.5891 26265.7
 02 08 2013  00 27  -21.0268 26035.6 -03468.9 -07.5891 26265.7
 02 08 2013  00 28  -21.0266 26035.6 -03468.9 -07.5892 26265.7
 02 08 2013  00 29  -21.0265 26035.6 -03468.9 -07.5892 26265.6
 02 08 2013  00 30  -21.0265 26035.5 -03468.9 -07.5893 26265.6
 02 08 2013  00 31  -21.0264 26035.4 -03468.9 -07.5893 26265.5
 02 08 2013  00 32  -21.0263 26035.5 -03469.0 -07.5894 26265.5
 02 08 2013  00 33  -21.0262 26035.5 -03469.0 -07.5895 26265.6
 02 08 2013  00 34  -21.0261 26035.5 -03469.1 -07.5896 26265.6
 02 08 2013  00 35  -21.0261 26035.6 -03469.2 -07.5897 26265.7
 02 08 2013  00 36  -21.0261 26035.7 -03469.2 -07.5899 26265.9
 02 08 2013  00 37  -21.0261 26035.8 -03469.3 -07.5900 26266.0
 02 08 2013  00 38  -21.0261 26035.8 -03469.3 -07.5900 26265.9
 02 08 2013  00 39  -21.0261 26035.7 -03469.3 -07.5900 26265.8
 02 08 2013  00 40  -21.0260 26035.7 -03469.3 -07.5900 26265.9
 02 08 2013  00 41  -21.0260 26035.6 -03469.3 -07.5900 26265.8
 02 08 2013  00 42  -21.0260 26035.6 -03469.3 -07.5900 26265.7
 02 08 2013  00 43  -21.0259 26035.6 -03469.3 -07.5900 26265.7
 02 08 2013  00 44  -21.0258 26035.6 -03469.3 -07.5901 26265.7
 02 08 2013  00 45  -21.0258 26035.6 -03469.3 -07.5901 26265.8
 02 08 2013  00 46  -21.0257 26035.5 -03469.3 -07.5901 26265.7
 02 08 2013  00 47  -21.0256 26035.5 -03469.3 -07.5901 26265.6
 02 08 2013  00 48  -21.0255 26035.7 -03469.4 -07.5902 26265.8
 02 08 2013  00 49  -21.0254 26035.9 -03469.5 -07.5905 26266.0
 02 08 2013  00 50  -21.0256 26035.6 -03469.5 -07.5904 26265.8
 02 08 2013  00 51  -21.0258 26035.3 -03469.3 -07.5901 26265.4
 02 08 2013  00 52  -21.0256 26035.1 -03469.2 -07.5900 26265.2
 02 08 2013  00 53  -21.0254 26034.7 -03469.0 -07.5897 26264.8
 02 08 2013  00 54  -21.0254 26034.4 -03468.9 -07.5895 26264.5
 02 08 2013  00 55  -21.0256 26034.3 -03469.0 -07.5897 26264.4
 02 08 2013  00 56  -21.0258 26034.3 -03469.0 -07.5898 26264.4
 02 08 2013  00 57  -21.0260 26034.5 -03469.1 -07.5900 26264.6
 02 08 2013  00 58  -21.0260 26034.6 -03469.3 -07.5902 26264.7
 02 08 2013  00 59  -21.0259 26034.8 -03469.3 -07.5904 26264.9
 02 08 2013  01 00  -21.0257 26034.9 -03469.4 -07.5905 26265.0
 02 08 2013  01 01  -21.0254 26034.7 -03469.3 -07.5904 26264.8
 02 08 2013  01 02  -21.0251 26034.5 -03469.3 -07.5903 26264.6
 02 08 2013  01 03  -21.0246 26034.5 -03469.3 -07.5903 26264.7
 02 08 2013  01 04  -21.0244 26034.6 -03469.3 -07.5904 26264.8
 02 08 2013  01 05  -21.0241 26034.8 -03469.5 -07.5907 26264.9
 02 08 2013  01 06  -21.0240 26035.0 -03469.6 -07.5910 26265.2
 02 08 2013  01 07  -21.0238 26035.3 -03469.8 -07.5913 26265.5
 02 08 2013  01 08  -21.0237 26035.2 -03469.9 -07.5914 26265.4
 02 08 2013  01 09  -21.0238 26035.1 -03469.8 -07.5913 26265.3
 02 08 2013  01 10  -21.0237 26035.2 -03469.9 -07.5914 26265.4
 02 08 2013  01 11  -21.0236 26035.1 -03469.9 -07.5914 26265.3
 02 08 2013  01 12  -21.0237 26035.2 -03469.9 -07.5916 26265.5
 02 08 2013  01 13  -21.0239 26035.2 -03470.0 -07.5916 26265.4
 02 08 2013  01 14  -21.0241 26035.1 -03469.9 -07.5916 26265.3
 02 08 2013  01 15  -21.0242 26035.2 -03470.0 -07.5916 26265.4
 02 08 2013  01 16  -21.0244 26035.2 -03470.0 -07.5917 26265.4
 02 08 2013  01 17  -21.0245 26035.2 -03470.0 -07.5917 26265.5
 02 08 2013  01 18  -21.0246 26035.2 -03470.0 -07.5917 26265.4
 02 08 2013  01 19  -21.0246 26035.2 -03470.0 -07.5916 26265.4
 02 08 2013  01 20  -21.0246 26035.2 -03470.0 -07.5917 26265.5
 02 08 2013  01 21  -21.0246 26035.2 -03470.0 -07.5916 26265.4
 02 08 2013  01 22  -21.0246 26035.2 -03470.0 -07.5916 26265.4
 02 08 2013  01 23  -21.0247 26035.1 -03470.0 -07.5916 26265.4
 02 08 2013  01 24  -21.0247 26035.1 -03469.9 -07.5915 26265.3
 02 08 2013  01 25  -21.0246 26035.0 -03469.9 -07.5915 26265.2
 02 08 2013  01 26  -21.0244 26035.1 -03469.9 -07.5914 26265.3
 02 08 2013  01 27  -21.0244 26035.0 -03469.8 -07.5914 26265.2
 02 08 2013  01 28  -21.0243 26034.9 -03469.8 -07.5914 26265.1
 02 08 2013  01 29  -21.0242 26034.8 -03469.8 -07.5913 26265.0
 02 08 2013  01 30  -21.0242 26034.8 -03469.8 -07.5913 26264.9
 02 08 2013  01 31  -21.0242 26034.8 -03469.8 -07.5914 26265.0
 02 08 2013  01 32  -21.0242 26034.8 -03469.8 -07.5914 26265.0
 02 08 2013  01 33  -21.0242 26034.7 -03469.7 -07.5913 26264.9
 02 08 2013  01 34  -21.0241 26034.7 -03469.8 -07.5913 26264.9
 02 08 2013  01 35  -21.0241 26034.7 -03469.7 -07.5913 26264.9
 02 08 2013  01 36  -21.0240 26034.7 -03469.7 -07.5913 26264.8
 02 08 2013  01 37  -21.0238 26034.6 -03469.7 -07.5912 26264.8
 02 08 2013  01 38  -21.0238 26034.6 -03469.7 -07.5912 26264.8
 02 08 2013  01 39  -21.0236 26034.6 -03469.7 -07.5912 26264.8
 02 08 2013  01 40  -21.0235 26034.6 -03469.7 -07.5913 26264.8
 02 08 2013  01 41  -21.0234 26034.6 -03469.8 -07.5913 26264.8
 02 08 2013  01 42  -21.0233 26034.7 -03469.8 -07.5914 26264.9
 02 08 2013  01 43  -21.0232 26034.7 -03469.8 -07.5914 26264.9
 02 08 2013  01 44  -21.0230 26034.7 -03469.8 -07.5915 26264.9
 02 08 2013  01 45  -21.0229 26034.7 -03469.8 -07.5914 26264.9
 02 08 2013  01 46  -21.0228 26034.6 -03469.8 -07.5914 26264.8
 02 08 2013  01 47  -21.0227 26034.6 -03469.8 -07.5915 26264.8
 02 08 2013  01 48  -21.0227 26034.5 -03469.8 -07.5915 26264.7
 02 08 2013  01 49  -21.0226 26034.4 -03469.8 -07.5914 26264.6
 02 08 2013  01 50  -21.0226 26034.4 -03469.8 -07.5914 26264.6
 02 08 2013  01 51  -21.0226 26034.3 -03469.8 -07.5914 26264.5
 02 08 2013  01 52  -21.0224 26034.2 -03469.7 -07.5914 26264.4
 02 08 2013  01 53  -21.0223 26034.1 -03469.7 -07.5914 26264.3
 02 08 2013  01 54  -21.0223 26034.0 -03469.7 -07.5914 26264.2
 02 08 2013  01 55  -21.0223 26033.9 -03469.7 -07.5915 26264.1
 02 08 2013  01 56  -21.0221 26034.0 -03469.8 -07.5915 26264.2
 02 08 2013  01 57  -21.0219 26034.0 -03469.8 -07.5916 26264.2
 02 08 2013  01 58  -21.0218 26034.0 -03469.8 -07.5916 26264.2
 02 08 2013  01 59  -21.0219 26033.9 -03469.8 -07.5917 26264.1
 02 08 2013  02 00  -21.0219 26033.8 -03469.8 -07.5917 26264.0
 02 08 2013  02 01  -21.0219 26033.7 -03469.8 -07.5917 26263.9
 02 08 2013  02 02  -21.0218 26033.8 -03469.8 -07.5918 26264.0
 02 08 2013  02 03  -21.0217 26033.8 -03469.9 -07.5919 26264.0
 02 08 2013  02 04  -21.0216 26033.8 -03469.9 -07.5920 26264.0
 02 08 2013  02 05  -21.0216 26033.7 -03469.9 -07.5920 26263.9
 02 08 2013  02 06  -21.0217 26033.7 -03470.0 -07.5921 26263.9
 02 08 2013  02 07  -21.0217 26033.7 -03470.0 -07.5921 26263.9
 02 08 2013  02 08  -21.0215 26033.8 -03470.0 -07.5922 26264.0
 02 08 2013  02 09  -21.0215 26033.7 -03470.0 -07.5922 26263.9
 02 08 2013  02 10  -21.0214 26033.8 -03470.1 -07.5923 26264.1
 02 08 2013  02 11  -21.0214 26033.8 -03470.1 -07.5924 26264.0
 02 08 2013  02 12  -21.0215 26033.6 -03470.1 -07.5923 26263.9
 02 08 2013  02 13  -21.0215 26033.5 -03470.0 -07.5922 26263.7
 02 08 2013  02 14  -21.0214 26033.3 -03470.0 -07.5922 26263.6
 02 08 2013  02 15  -21.0214 26033.3 -03470.0 -07.5921 26263.5
 02 08 2013  02 16  -21.0214 26033.2 -03469.9 -07.5921 26263.4
 02 08 2013  02 17  -21.0213 26033.0 -03469.9 -07.5921 26263.3
 02 08 2013  02 18  -21.0213 26033.0 -03469.9 -07.5921 26263.3
 02 08 2013  02 19  -21.0212 26033.1 -03470.0 -07.5922 26263.3
 02 08 2013  02 20  -21.0212 26033.0 -03469.9 -07.5922 26263.2
 02 08 2013  02 21  -21.0210 26033.2 -03470.1 -07.5924 26263.4
 02 08 2013  02 22  -21.0210 26033.0 -03470.0 -07.5924 26263.3
 02 08 2013  02 23  -21.0208 26033.3 -03470.1 -07.5926 26263.5
 02 08 2013  02 24  -21.0206 26033.2 -03470.2 -07.5927 26263.5
 02 08 2013  02 25  -21.0206 26033.1 -03470.1 -07.5926 26263.4
 02 08 2013  02 26  -21.0205 26033.1 -03470.2 -07.5927 26263.4
 02 08 2013  02 27  -21.0205 26033.0 -03470.2 -07.5927 26263.3
 02 08 2013  02 28  -21.0206 26033.1 -03470.2 -07.5928 26263.4
 02 08 2013  02 29  -21.0205 26033.1 -03470.3 -07.5928 26263.4
 02 08 2013  02 30  -21.0204 26033.0 -03470.2 -07.5928 26263.2
 02 08 2013  02 31  -21.0204 26033.0 -03470.3 -07.5929 26263.3
 02 08 2013  02 32  -21.0205 26032.9 -03470.2 -07.5929 26263.2
 02 08 2013  02 33  -21.0205 26032.9 -03470.3 -07.5929 26263.2
 02 08 2013  02 34  -21.0205 26032.9 -03470.3 -07.5929 26263.2
 02 08 2013  02 35  -21.0205 26032.8 -03470.3 -07.5929 26263.1
 02 08 2013  02 36  -21.0204 26032.8 -03470.3 -07.5929 26263.1
 02 08 2013  02 37  -21.0204 26032.7 -03470.3 -07.5930 26263.0
 02 08 2013  02 38  -21.0204 26032.6 -03470.2 -07.5930 26262.9
 02 08 2013  02 39  -21.0204 26032.5 -03470.2 -07.5930 26262.8
 02 08 2013  02 40  -21.0205 26032.5 -03470.3 -07.5930 26262.8
 02 08 2013  02 41  -21.0205 26032.5 -03470.3 -07.5931 26262.8
 02 08 2013  02 42  -21.0206 26032.4 -03470.3 -07.5931 26262.7
 02 08 2013  02 43  -21.0207 26032.4 -03470.3 -07.5931 26262.7
 02 08 2013  02 44  -21.0208 26032.4 -03470.3 -07.5931 26262.7
 02 08 2013  02 45  -21.0207 26032.3 -03470.3 -07.5931 26262.6
 02 08 2013  02 46  -21.0207 26032.3 -03470.3 -07.5932 26262.6
 02 08 2013  02 47  -21.0208 26032.3 -03470.3 -07.5933 26262.6
 02 08 2013  02 48  -21.0209 26032.3 -03470.4 -07.5933 26262.6
 02 08 2013  02 49  -21.0208 26032.4 -03470.4 -07.5935 26262.7
 02 08 2013  02 50  -21.0209 26032.3 -03470.5 -07.5936 26262.7
 02 08 2013  02 51  -21.0207 26032.6 -03470.6 -07.5937 26262.9
 02 08 2013  02 52  -21.0207 26032.5 -03470.6 -07.5937 26262.8
 02 08 2013  02 53  -21.0206 26032.6 -03470.7 -07.5938 26262.9
 02 08 2013  02 54  -21.0206 26032.5 -03470.6 -07.5938 26262.9
 02 08 2013  02 55  -21.0207 26032.8 -03470.8 -07.5941 26263.1
 02 08 2013  02 56  -21.0207 26032.5 -03470.7 -07.5940 26262.9
 02 08 2013  02 57  -21.0206 26032.7 -03470.8 -07.5941 26263.0
 02 08 2013  02 58  -21.0208 26032.5 -03470.7 -07.5940 26262.9
 02 08 2013  02 59  -21.0208 26032.6 -03470.7 -07.5941 26262.9
 02 08 2013  03 00  -21.0208 26032.5 -03470.7 -07.5940 26262.8
 02 08 2013  03 01  -21.0208 26032.5 -03470.7 -07.5940 26262.8
 02 08 2013  03 02  -21.0206 26032.8 -03470.8 -07.5941 26263.1
 02 08 2013  03 03  -21.0209 26032.4 -03470.8 -07.5941 26262.8
 02 08 2013  03 04  -21.0205 26032.8 -03470.8 -07.5942 26263.1
 02 08 2013  03 05  -21.0207 26032.9 -03471.0 -07.5945 26263.3
 02 08 2013  03 06  -21.0206 26032.6 -03470.8 -07.5942 26262.9
 02 08 2013  03 07  -21.0206 26032.9 -03471.0 -07.5945 26263.3
 02 08 2013  03 08  -21.0206 26032.5 -03470.8 -07.5942 26262.9
 02 08 2013  03 09  -21.0205 26032.8 -03471.0 -07.5944 26263.2
 02 08 2013  03 10  -21.0208 26032.5 -03470.8 -07.5943 26262.9
 02 08 2013  03 11  -21.0209 26032.7 -03470.9 -07.5944 26263.1
 02 08 2013  03 12  -21.0211 26032.6 -03470.9 -07.5944 26263.0
 02 08 2013  03 13  -21.0210 26032.9 -03471.0 -07.5946 26263.3
 02 08 2013  03 14  -21.0210 26032.9 -03471.1 -07.5946 26263.2
 02 08 2013  03 15  -21.0212 26032.8 -03471.0 -07.5945 26263.2
 02 08 2013  03 16  -21.0211 26033.2 -03471.2 -07.5949 26263.7
 02 08 2013  03 17  -21.0213 26032.9 -03471.1 -07.5948 26263.3
 02 08 2013  03 18  -21.0212 26033.2 -03471.2 -07.5949 26263.6
 02 08 2013  03 19  -21.0214 26033.4 -03471.3 -07.5951 26263.8
 02 08 2013  03 20  -21.0214 26033.4 -03471.3 -07.5951 26263.9
 02 08 2013  03 21  -21.0216 26033.6 -03471.4 -07.5952 26264.0
 02 08 2013  03 22  -21.0217 26033.7 -03471.5 -07.5953 26264.1
 02 08 2013  03 23  -21.0218 26033.6 -03471.4 -07.5953 26264.0
 02 08 2013  03 24  -21.0216 26033.7 -03471.4 -07.5952 26264.1
 02 08 2013  03 25  -21.0217 26033.8 -03471.5 -07.5953 26264.2
 02 08 2013  03 26  -21.0216 26033.9 -03471.5 -07.5953 26264.3
 02 08 2013  03 27  -21.0216 26034.1 -03471.6 -07.5955 26264.6
 02 08 2013  03 28  -21.0216 26034.0 -03471.6 -07.5954 26264.4
 02 08 2013  03 29  -21.0216 26034.0 -03471.5 -07.5954 26264.5
 02 08 2013  03 30  -21.0218 26034.0 -03471.6 -07.5954 26264.5
 02 08 2013  03 31  -21.0218 26034.0 -03471.5 -07.5953 26264.4
 02 08 2013  03 32  -21.0218 26034.0 -03471.5 -07.5954 26264.5
 02 08 2013  03 33  -21.0218 26034.1 -03471.6 -07.5954 26264.5
 02 08 2013  03 34  -21.0218 26034.1 -03471.6 -07.5954 26264.5
 02 08 2013  03 35  -21.0219 26034.0 -03471.5 -07.5952 26264.5
 02 08 2013  03 36  -21.0219 26034.0 -03471.5 -07.5952 26264.4
 02 08 2013  03 37  -21.0220 26033.9 -03471.4 -07.5951 26264.3
 02 08 2013  03 38  -21.0219 26033.8 -03471.4 -07.5951 26264.3
 02 08 2013  03 39  -21.0220 26033.8 -03471.3 -07.5950 26264.2
 02 08 2013  03 40  -21.0221 26033.7 -03471.3 -07.5949 26264.1
 02 08 2013  03 41  -21.0222 26033.7 -03471.3 -07.5949 26264.1
 02 08 2013  03 42  -21.0223 26033.6 -03471.2 -07.5948 26264.0
 02 08 2013  03 43  -21.0224 26033.6 -03471.3 -07.5949 26264.0
 02 08 2013  03 44  -21.0224 26033.6 -03471.3 -07.5949 26264.0
 02 08 2013  03 45  -21.0224 26033.4 -03471.2 -07.5948 26263.8
 02 08 2013  03 46  -21.0223 26033.6 -03471.2 -07.5948 26264.0
 02 08 2013  03 47  -21.0224 26033.5 -03471.2 -07.5948 26263.9
 02 08 2013  03 48  -21.0224 26033.4 -03471.2 -07.5947 26263.8
 02 08 2013  03 49  -21.0224 26033.3 -03471.1 -07.5947 26263.7
 02 08 2013  03 50  -21.0224 26033.4 -03471.2 -07.5947 26263.8
 02 08 2013  03 51  -21.0224 26033.4 -03471.2 -07.5948 26263.8
 02 08 2013  03 52  -21.0226 26033.3 -03471.1 -07.5947 26263.7
 02 08 2013  03 53  -21.0226 26033.2 -03471.1 -07.5947 26263.5
 02 08 2013  03 54  -21.0226 26033.1 -03471.1 -07.5947 26263.5
 02 08 2013  03 55  -21.0226 26032.9 -03471.0 -07.5945 26263.3
 02 08 2013  03 56  -21.0226 26033.0 -03471.0 -07.5945 26263.3
 02 08 2013  03 57  -21.0225 26032.9 -03471.0 -07.5944 26263.3
 02 08 2013  03 58  -21.0223 26033.1 -03471.1 -07.5946 26263.5
 02 08 2013  03 59  -21.0225 26032.9 -03471.0 -07.5946 26263.2
 02 08 2013  04 00  -21.0223 26033.0 -03471.0 -07.5946 26263.4
 02 08 2013  04 01  -21.0224 26032.7 -03471.0 -07.5945 26263.1
 02 08 2013  04 02  -21.0223 26033.0 -03471.1 -07.5947 26263.4
 02 08 2013  04 03  -21.0224 26032.9 -03471.1 -07.5947 26263.3
 02 08 2013  04 04  -21.0225 26032.7 -03471.0 -07.5945 26263.1
 02 08 2013  04 05  -21.0225 26032.9 -03471.1 -07.5947 26263.3
 02 08 2013  04 06  -21.0225 26033.0 -03471.1 -07.5947 26263.4
 02 08 2013  04 07  -21.0224 26033.2 -03471.2 -07.5948 26263.6
 02 08 2013  04 08  -21.0226 26032.9 -03471.1 -07.5948 26263.3
 02 08 2013  04 09  -21.0226 26033.0 -03471.1 -07.5947 26263.4
 02 08 2013  04 10  -21.0227 26033.0 -03471.1 -07.5947 26263.3
 02 08 2013  04 11  -21.0227 26033.0 -03471.1 -07.5948 26263.4
 02 08 2013  04 12  -21.0227 26032.8 -03471.1 -07.5947 26263.2
 02 08 2013  04 13  -21.0226 26032.8 -03471.0 -07.5946 26263.2
 02 08 2013  04 14  -21.0225 26032.9 -03471.1 -07.5946 26263.3
 02 08 2013  04 15  -21.0226 26032.8 -03471.0 -07.5946 26263.2
 02 08 2013  04 16  -21.0225 26033.1 -03471.1 -07.5948 26263.5
 02 08 2013  04 17  -21.0227 26032.9 -03471.1 -07.5947 26263.3
 02 08 2013  04 18  -21.0228 26033.1 -03471.2 -07.5948 26263.5
 02 08 2013  04 19  -21.0230 26033.1 -03471.2 -07.5950 26263.6
 02 08 2013  04 20  -21.0232 26033.1 -03471.2 -07.5949 26263.5
 02 08 2013  04 21  -21.0231 26033.2 -03471.2 -07.5949 26263.6
 02 08 2013  04 22  -21.0231 26033.2 -03471.2 -07.5949 26263.6
 02 08 2013  04 23  -21.0231 26033.3 -03471.2 -07.5949 26263.7
 02 08 2013  04 24  -21.0231 26033.3 -03471.2 -07.5949 26263.7
 02 08 2013  04 25  -21.0231 26033.4 -03471.2 -07.5949 26263.8
 02 08 2013  04 26  -21.0232 26033.5 -03471.3 -07.5951 26263.9
 02 08 2013  04 27  -21.0233 26033.7 -03471.4 -07.5952 26264.1
 02 08 2013  04 28  -21.0235 26033.8 -03471.5 -07.5952 26264.2
 02 08 2013  04 29  -21.0235 26034.0 -03471.5 -07.5954 26264.4
 02 08 2013  04 30  -21.0237 26034.0 -03471.6 -07.5954 26264.4
 02 08 2013  04 31  -21.0236 26034.4 -03471.7 -07.5956 26264.9
 02 08 2013  04 32  -21.0238 26034.3 -03471.7 -07.5956 26264.8
 02 08 2013  04 33  -21.0237 26034.5 -03471.7 -07.5956 26264.9
 02 08 2013  04 34  -21.0238 26034.7 -03471.8 -07.5957 26265.2
 02 08 2013  04 35  -21.0238 26035.2 -03472.0 -07.5960 26265.7
 02 08 2013  04 36  -21.0241 26035.4 -03472.1 -07.5962 26265.9
 02 08 2013  04 37  -21.0243 26035.5 -03472.2 -07.5962 26266.0
 02 08 2013  04 38  -21.0245 26035.8 -03472.2 -07.5963 26266.3
 02 08 2013  04 39  -21.0247 26035.9 -03472.2 -07.5963 26266.4
 02 08 2013  04 40  -21.0250 26036.0 -03472.2 -07.5962 26266.5
 02 08 2013  04 41  -21.0251 26036.1 -03472.2 -07.5962 26266.6
 02 08 2013  04 42  -21.0251 26036.2 -03472.2 -07.5963 26266.7
 02 08 2013  04 43  -21.0253 26036.2 -03472.1 -07.5961 26266.7
 02 08 2013  04 44  -21.0254 26036.2 -03472.1 -07.5959 26266.7
 02 08 2013  04 45  -21.0253 26036.2 -03472.0 -07.5958 26266.7
 02 08 2013  04 46  -21.0252 26036.4 -03472.1 -07.5958 26266.8
 02 08 2013  04 47  -21.0252 26036.4 -03472.1 -07.5958 26266.9
 02 08 2013  04 48  -21.0251 26036.6 -03472.1 -07.5958 26267.1
 02 08 2013  04 49  -21.0249 26036.6 -03472.1 -07.5957 26267.1
 02 08 2013  04 50  -21.0248 26036.7 -03472.1 -07.5957 26267.1
 02 08 2013  04 51  -21.0246 26036.7 -03472.1 -07.5957 26267.2
 02 08 2013  04 52  -21.0246 26036.8 -03472.1 -07.5957 26267.3
 02 08 2013  04 53  -21.0245 26036.9 -03472.1 -07.5957 26267.4
 02 08 2013  04 54  -21.0244 26037.1 -03472.1 -07.5958 26267.6
 02 08 2013  04 55  -21.0245 26037.0 -03472.1 -07.5957 26267.5
 02 08 2013  04 56  -21.0245 26037.1 -03472.1 -07.5957 26267.6
 02 08 2013  04 57  -21.0245 26037.1 -03472.1 -07.5956 26267.6
 02 08 2013  04 58  -21.0246 26037.0 -03472.0 -07.5955 26267.4
 02 08 2013  04 59  -21.0246 26036.9 -03471.9 -07.5953 26267.3
 02 08 2013  05 00  -21.0245 26036.8 -03471.8 -07.5952 26267.2
 02 08 2013  05 01  -21.0245 26036.7 -03471.8 -07.5951 26267.2
 02 08 2013  05 02  -21.0245 26036.7 -03471.7 -07.5950 26267.1
 02 08 2013  05 03  -21.0246 26036.6 -03471.7 -07.5949 26267.0
 02 08 2013  05 04  -21.0246 26036.4 -03471.6 -07.5948 26266.9
 02 08 2013  05 05  -21.0245 26036.4 -03471.5 -07.5947 26266.8
 02 08 2013  05 06  -21.0245 26036.3 -03471.5 -07.5946 26266.7
 02 08 2013  05 07  -21.0246 26036.2 -03471.4 -07.5945 26266.6
 02 08 2013  05 08  -21.0247 26036.3 -03471.4 -07.5945 26266.7
 02 08 2013  05 09  -21.0249 26036.3 -03471.5 -07.5946 26266.7
 02 08 2013  05 10  -21.0251 26036.3 -03471.5 -07.5947 26266.7
 02 08 2013  05 11  -21.0250 26036.4 -03471.5 -07.5946 26266.8
 02 08 2013  05 12  -21.0249 26036.3 -03471.5 -07.5946 26266.8
 02 08 2013  05 13  -21.0248 26036.3 -03471.4 -07.5944 26266.7
 02 08 2013  05 14  -21.0247 26036.2 -03471.4 -07.5944 26266.6
