SAO LUIS EMBRACE-03 <153> 1 Min. Reported data

 DD MM YYYY  HH MM   D(Deg)  H(nT)   Z(nT)   I(Deg)   F(nT)

 02 06 2013  00 00  -21.0566 26000.1 -03447.8 -07.5537 26227.7
 02 06 2013  00 01  -21.0557 26000.0 -03447.7 -07.5535 26227.6
 02 06 2013  00 02  -21.0548 25999.8 -03447.6 -07.5534 26227.4
 02 06 2013  00 03  -21.0543 25999.8 -03447.6 -07.5534 26227.3
 02 06 2013  00 04  -21.0542 26000.0 -03447.8 -07.5537 26227.6
 02 06 2013  00 05  -21.0542 26000.2 -03447.9 -07.5540 26227.9
 02 06 2013  00 06  -21.0542 26000.4 -03448.0 -07.5542 26228.0
 02 06 2013  00 07  -21.0543 26000.3 -03448.0 -07.5542 26227.9
 02 06 2013  00 08  -21.0544 26000.2 -03448.0 -07.5541 26227.9
 02 06 2013  00 09  -21.0542 26000.3 -03448.0 -07.5541 26227.9
 02 06 2013  00 10  -21.0541 26000.3 -03448.0 -07.5541 26228.0
 02 06 2013  00 11  -21.0541 26000.3 -03448.0 -07.5541 26227.9
 02 06 2013  00 12  -21.0542 26000.2 -03448.0 -07.5541 26227.8
 02 06 2013  00 13  -21.0541 26000.1 -03447.9 -07.5540 26227.7
 02 06 2013  00 14  -21.0541 26000.4 -03448.0 -07.5541 26228.0
 02 06 2013  00 15  -21.0540 26001.3 -03448.5 -07.5549 26229.0
 02 06 2013  00 16  -21.0539 26002.3 -03449.0 -07.5556 26230.1
 02 06 2013  00 17  -21.0541 26003.4 -03449.5 -07.5565 26231.1
 02 06 2013  00 18  -21.0547 26004.3 -03450.0 -07.5572 26232.2
 02 06 2013  00 19  -21.0561 26004.4 -03450.0 -07.5574 26232.2
 02 06 2013  00 20  -21.0587 26003.4 -03449.6 -07.5567 26231.3
 02 06 2013  00 21  -21.0617 26002.4 -03449.0 -07.5557 26230.1
 02 06 2013  00 22  -21.0636 26001.3 -03448.4 -07.5546 26229.0
 02 06 2013  00 23  -21.0645 26000.6 -03447.7 -07.5535 26228.2
 02 06 2013  00 24  -21.0654 26000.0 -03447.3 -07.5527 26227.6
 02 06 2013  00 25  -21.0658 25999.7 -03447.0 -07.5521 26227.2
 02 06 2013  00 26  -21.0657 25999.9 -03447.0 -07.5520 26227.4
 02 06 2013  00 27  -21.0654 26000.4 -03447.2 -07.5523 26227.9
 02 06 2013  00 28  -21.0649 26000.9 -03447.4 -07.5526 26228.5
 02 06 2013  00 29  -21.0647 26001.1 -03447.4 -07.5527 26228.6
 02 06 2013  00 30  -21.0652 26000.8 -03447.3 -07.5525 26228.4
 02 06 2013  00 31  -21.0660 26000.1 -03447.0 -07.5520 26227.6
 02 06 2013  00 32  -21.0674 25999.1 -03446.6 -07.5513 26226.5
 02 06 2013  00 33  -21.0689 25998.6 -03446.3 -07.5510 26226.1
 02 06 2013  00 34  -21.0699 25998.7 -03446.4 -07.5510 26226.2
 02 06 2013  00 35  -21.0702 25998.8 -03446.4 -07.5511 26226.3
 02 06 2013  00 36  -21.0698 25999.3 -03446.5 -07.5512 26226.8
 02 06 2013  00 37  -21.0691 26000.6 -03447.0 -07.5520 26228.1
 02 06 2013  00 38  -21.0685 26001.5 -03447.5 -07.5526 26229.1
 02 06 2013  00 39  -21.0683 26002.1 -03447.7 -07.5530 26229.7
 02 06 2013  00 40  -21.0690 26002.2 -03447.7 -07.5530 26229.8
 02 06 2013  00 41  -21.0699 26001.7 -03447.5 -07.5527 26229.2
 02 06 2013  00 42  -21.0706 26000.7 -03446.9 -07.5517 26228.2
 02 06 2013  00 43  -21.0712 26000.0 -03446.4 -07.5508 26227.4
 02 06 2013  00 44  -21.0708 25999.4 -03446.0 -07.5500 26226.8
 02 06 2013  00 45  -21.0698 25998.7 -03445.5 -07.5492 26226.1
 02 06 2013  00 46  -21.0682 25998.0 -03445.1 -07.5485 26225.3
 02 06 2013  00 47  -21.0663 25997.5 -03444.8 -07.5479 26224.7
 02 06 2013  00 48  -21.0649 25996.9 -03444.5 -07.5476 26224.1
 02 06 2013  00 49  -21.0645 25996.4 -03444.4 -07.5475 26223.6
 02 06 2013  00 50  -21.0649 25996.1 -03444.5 -07.5478 26223.3
 02 06 2013  00 51  -21.0651 25996.1 -03444.7 -07.5482 26223.4
 02 06 2013  00 52  -21.0650 25996.5 -03445.0 -07.5487 26223.8
 02 06 2013  00 53  -21.0652 25996.7 -03445.2 -07.5491 26224.0
 02 06 2013  00 54  -21.0654 25997.1 -03445.5 -07.5496 26224.5
 02 06 2013  00 55  -21.0657 25997.4 -03445.7 -07.5500 26224.8
 02 06 2013  00 56  -21.0659 25997.3 -03445.7 -07.5500 26224.6
 02 06 2013  00 57  -21.0657 25997.4 -03445.8 -07.5501 26224.8
 02 06 2013  00 58  -21.0652 25997.7 -03445.9 -07.5503 26225.1
 02 06 2013  00 59  -21.0649 25998.0 -03446.1 -07.5506 26225.4
 02 06 2013  01 00  -21.0653 25998.0 -03446.2 -07.5508 26225.4
 02 06 2013  01 01  -21.0654 25998.2 -03446.3 -07.5509 26225.6
 02 06 2013  01 02  -21.0654 25998.3 -03446.3 -07.5510 26225.7
 02 06 2013  01 03  -21.0657 25998.5 -03446.4 -07.5511 26226.0
 02 06 2013  01 04  -21.0667 25998.5 -03446.4 -07.5512 26226.0
 02 06 2013  01 05  -21.0681 25997.6 -03446.0 -07.5506 26225.0
 02 06 2013  01 06  -21.0689 25996.4 -03445.3 -07.5495 26223.7
 02 06 2013  01 07  -21.0693 25996.0 -03445.0 -07.5488 26223.2
 02 06 2013  01 08  -21.0704 25995.4 -03444.7 -07.5483 26222.6
 02 06 2013  01 09  -21.0704 25994.7 -03444.3 -07.5477 26221.9
 02 06 2013  01 10  -21.0709 25994.2 -03444.0 -07.5472 26221.3
 02 06 2013  01 11  -21.0714 25994.7 -03444.2 -07.5475 26221.9
 02 06 2013  01 12  -21.0718 25994.9 -03444.4 -07.5479 26222.1
 02 06 2013  01 13  -21.0706 25993.8 -03443.8 -07.5468 26220.9
 02 06 2013  01 14  -21.0689 25992.7 -03443.1 -07.5456 26219.7
 02 06 2013  01 15  -21.0677 25991.7 -03442.5 -07.5447 26218.7
 02 06 2013  01 16  -21.0662 25990.2 -03441.8 -07.5437 26217.1
 02 06 2013  01 17  -21.0644 25989.0 -03441.3 -07.5428 26215.9
 02 06 2013  01 18  -21.0621 25988.6 -03441.1 -07.5426 26215.4
 02 06 2013  01 19  -21.0597 25988.3 -03441.1 -07.5427 26215.1
 02 06 2013  01 20  -21.0579 25988.1 -03441.3 -07.5430 26215.0
 02 06 2013  01 21  -21.0562 25988.7 -03441.8 -07.5440 26215.6
 02 06 2013  01 22  -21.0540 25989.4 -03442.4 -07.5451 26216.4
 02 06 2013  01 23  -21.0518 25990.5 -03443.2 -07.5465 26217.6
 02 06 2013  01 24  -21.0497 25991.3 -03443.8 -07.5477 26218.5
 02 06 2013  01 25  -21.0479 25992.6 -03444.6 -07.5491 26219.8
 02 06 2013  01 26  -21.0463 25994.4 -03445.7 -07.5509 26221.8
 02 06 2013  01 27  -21.0449 25996.3 -03446.9 -07.5528 26223.8
 02 06 2013  01 28  -21.0437 25997.6 -03447.7 -07.5542 26225.2
 02 06 2013  01 29  -21.0426 25999.6 -03448.8 -07.5560 26227.3
 02 06 2013  01 30  -21.0417 26000.9 -03449.4 -07.5571 26228.7
 02 06 2013  01 31  -21.0414 26002.5 -03450.2 -07.5582 26230.4
 02 06 2013  01 32  -21.0413 26004.0 -03450.9 -07.5593 26232.0
 02 06 2013  01 33  -21.0404 26005.7 -03451.6 -07.5603 26233.7
 02 06 2013  01 34  -21.0397 26007.2 -03452.1 -07.5611 26235.3
 02 06 2013  01 35  -21.0391 26008.3 -03452.5 -07.5616 26236.5
 02 06 2013  01 36  -21.0387 26009.5 -03452.9 -07.5621 26237.7
 02 06 2013  01 37  -21.0379 26010.6 -03453.2 -07.5625 26238.8
 02 06 2013  01 38  -21.0375 26011.4 -03453.5 -07.5627 26239.7
 02 06 2013  01 39  -21.0371 26012.4 -03453.8 -07.5631 26240.7
 02 06 2013  01 40  -21.0370 26012.5 -03453.7 -07.5630 26240.8
 02 06 2013  01 41  -21.0382 26012.6 -03453.6 -07.5628 26240.8
 02 06 2013  01 42  -21.0393 26012.2 -03453.3 -07.5622 26240.4
 02 06 2013  01 43  -21.0400 26011.6 -03452.9 -07.5614 26239.8
 02 06 2013  01 44  -21.0403 26011.2 -03452.4 -07.5606 26239.4
 02 06 2013  01 45  -21.0403 26011.2 -03452.2 -07.5602 26239.3
 02 06 2013  01 46  -21.0403 26010.6 -03451.9 -07.5596 26238.6
 02 06 2013  01 47  -21.0408 26009.5 -03451.3 -07.5587 26237.5
 02 06 2013  01 48  -21.0417 26008.2 -03450.7 -07.5578 26236.1
 02 06 2013  01 49  -21.0427 26007.2 -03450.2 -07.5569 26235.1
 02 06 2013  01 50  -21.0438 26006.5 -03449.8 -07.5563 26234.3
 02 06 2013  01 51  -21.0445 26006.3 -03449.8 -07.5562 26234.1
 02 06 2013  01 52  -21.0449 26006.0 -03449.7 -07.5562 26233.9
 02 06 2013  01 53  -21.0450 26005.7 -03449.6 -07.5560 26233.5
 02 06 2013  01 54  -21.0452 26005.5 -03449.5 -07.5559 26233.3
 02 06 2013  01 55  -21.0455 26005.9 -03449.7 -07.5563 26233.7
 02 06 2013  01 56  -21.0464 26006.6 -03450.2 -07.5570 26234.5
 02 06 2013  01 57  -21.0473 26007.4 -03450.6 -07.5577 26235.3
 02 06 2013  01 58  -21.0483 26007.8 -03450.8 -07.5581 26235.7
 02 06 2013  01 59  -21.0495 26008.3 -03451.0 -07.5584 26236.2
 02 06 2013  02 00  -21.0504 26008.6 -03451.1 -07.5584 26236.6
 02 06 2013  02 01  -21.0515 26008.5 -03451.0 -07.5582 26236.4
 02 06 2013  02 02  -21.0520 26008.6 -03450.9 -07.5580 26236.5
 02 06 2013  02 03  -21.0516 26008.0 -03450.3 -07.5569 26235.9
 02 06 2013  02 04  -21.0507 26007.9 -03450.0 -07.5562 26235.7
 02 06 2013  02 05  -21.0497 26008.5 -03450.1 -07.5563 26236.3
 02 06 2013  02 06  -21.0490 26009.1 -03450.4 -07.5568 26236.9
 02 06 2013  02 07  -21.0487 26009.0 -03450.3 -07.5567 26236.9
 02 06 2013  02 08  -21.0481 26009.5 -03450.4 -07.5568 26237.3
 02 06 2013  02 09  -21.0470 26009.8 -03450.5 -07.5568 26237.6
 02 06 2013  02 10  -21.0457 26010.2 -03450.6 -07.5569 26238.0
 02 06 2013  02 11  -21.0462 26009.5 -03450.3 -07.5565 26237.3
 02 06 2013  02 12  -21.0473 26008.4 -03449.8 -07.5558 26236.2
 02 06 2013  02 13  -21.0479 26007.2 -03449.2 -07.5547 26234.9
 02 06 2013  02 14  -21.0480 26006.1 -03448.5 -07.5536 26233.7
 02 06 2013  02 15  -21.0482 26005.6 -03448.2 -07.5531 26233.2
 02 06 2013  02 16  -21.0487 26005.5 -03448.2 -07.5531 26233.1
 02 06 2013  02 17  -21.0493 26005.7 -03448.4 -07.5534 26233.3
 02 06 2013  02 18  -21.0499 26006.0 -03448.6 -07.5538 26233.7
 02 06 2013  02 19  -21.0510 26006.4 -03448.9 -07.5542 26234.1
 02 06 2013  02 20  -21.0523 26006.6 -03449.0 -07.5545 26234.3
 02 06 2013  02 21  -21.0538 26006.8 -03449.1 -07.5547 26234.5
 02 06 2013  02 22  -21.0557 26007.2 -03449.3 -07.5550 26234.9
 02 06 2013  02 23  -21.0575 26007.6 -03449.5 -07.5552 26235.4
 02 06 2013  02 24  -21.0591 26008.0 -03449.6 -07.5553 26235.8
 02 06 2013  02 25  -21.0601 26008.4 -03449.7 -07.5554 26236.2
 02 06 2013  02 26  -21.0606 26009.3 -03449.8 -07.5555 26237.1
 02 06 2013  02 27  -21.0610 26010.5 -03450.3 -07.5561 26238.3
 02 06 2013  02 28  -21.0615 26011.5 -03450.6 -07.5566 26239.4
 02 06 2013  02 29  -21.0625 26012.3 -03450.9 -07.5570 26240.2
 02 06 2013  02 30  -21.0642 26013.3 -03451.3 -07.5575 26241.3
 02 06 2013  02 31  -21.0663 26013.7 -03451.3 -07.5575 26241.6
 02 06 2013  02 32  -21.0680 26013.3 -03450.9 -07.5566 26241.2
 02 06 2013  02 33  -21.0685 26013.0 -03450.4 -07.5556 26240.9
 02 06 2013  02 34  -21.0687 26012.4 -03449.8 -07.5544 26240.2
 02 06 2013  02 35  -21.0688 26011.3 -03448.9 -07.5530 26238.9
 02 06 2013  02 36  -21.0684 26009.2 -03447.7 -07.5509 26236.7
 02 06 2013  02 37  -21.0673 26007.6 -03446.7 -07.5491 26235.0
 02 06 2013  02 38  -21.0668 26006.6 -03446.1 -07.5482 26233.9
 02 06 2013  02 39  -21.0663 26005.6 -03445.7 -07.5476 26232.9
 02 06 2013  02 40  -21.0654 26004.8 -03445.3 -07.5470 26232.1
 02 06 2013  02 41  -21.0643 26004.3 -03445.1 -07.5468 26231.5
 02 06 2013  02 42  -21.0630 26003.9 -03445.1 -07.5467 26231.1
 02 06 2013  02 43  -21.0620 26003.8 -03445.2 -07.5470 26231.0
 02 06 2013  02 44  -21.0613 26004.1 -03445.5 -07.5476 26231.4
 02 06 2013  02 45  -21.0609 26004.4 -03445.8 -07.5483 26231.7
 02 06 2013  02 46  -21.0606 26004.6 -03446.2 -07.5489 26232.0
 02 06 2013  02 47  -21.0608 26004.8 -03446.4 -07.5494 26232.2
 02 06 2013  02 48  -21.0614 26005.2 -03446.7 -07.5500 26232.6
 02 06 2013  02 49  -21.0626 26005.7 -03447.1 -07.5507 26233.2
 02 06 2013  02 50  -21.0641 26006.3 -03447.5 -07.5514 26233.8
 02 06 2013  02 51  -21.0659 26006.6 -03447.8 -07.5518 26234.2
 02 06 2013  02 52  -21.0676 26007.1 -03448.0 -07.5521 26234.6
 02 06 2013  02 53  -21.0690 26007.6 -03448.1 -07.5523 26235.1
 02 06 2013  02 54  -21.0705 26008.7 -03448.6 -07.5529 26236.4
 02 06 2013  02 55  -21.0719 26008.8 -03448.6 -07.5530 26236.5
 02 06 2013  02 56  -21.0741 26008.5 -03448.3 -07.5525 26236.1
 02 06 2013  02 57  -21.0752 26008.7 -03448.2 -07.5521 26236.3
 02 06 2013  02 58  -21.0754 26008.9 -03448.0 -07.5517 26236.5
 02 06 2013  02 59  -21.0764 26009.0 -03447.9 -07.5514 26236.6
 02 06 2013  03 00  -21.0779 26009.3 -03447.9 -07.5514 26236.8
 02 06 2013  03 01  -21.0790 26009.3 -03447.8 -07.5510 26236.8
 02 06 2013  03 02  -21.0798 26008.8 -03447.4 -07.5503 26236.3
 02 06 2013  03 03  -21.0809 26008.4 -03447.0 -07.5496 26235.9
 02 06 2013  03 04  -21.0817 26007.8 -03446.5 -07.5488 26235.2
 02 06 2013  03 05  -21.0822 26007.1 -03446.0 -07.5479 26234.4
 02 06 2013  03 06  -21.0826 26006.3 -03445.5 -07.5470 26233.5
 02 06 2013  03 07  -21.0819 26005.9 -03445.2 -07.5463 26233.1
 02 06 2013  03 08  -21.0809 26005.9 -03445.0 -07.5461 26233.1
 02 06 2013  03 09  -21.0802 26006.0 -03445.1 -07.5462 26233.2
 02 06 2013  03 10  -21.0796 26006.3 -03445.3 -07.5465 26233.5
 02 06 2013  03 11  -21.0790 26006.1 -03445.2 -07.5465 26233.3
 02 06 2013  03 12  -21.0786 26005.2 -03444.8 -07.5459 26232.4
 02 06 2013  03 13  -21.0788 26002.5 -03443.7 -07.5441 26229.5
 02 06 2013  03 14  -21.0790 25999.1 -03442.0 -07.5414 26225.9
 02 06 2013  03 15  -21.0779 25995.9 -03440.4 -07.5389 26222.6
 02 06 2013  03 16  -21.0759 25993.6 -03439.2 -07.5371 26220.1
 02 06 2013  03 17  -21.0732 25992.4 -03438.8 -07.5365 26218.9
 02 06 2013  03 18  -21.0707 25992.3 -03439.0 -07.5370 26218.8
 02 06 2013  03 19  -21.0685 25992.9 -03439.9 -07.5386 26219.6
 02 06 2013  03 20  -21.0653 25994.0 -03440.7 -07.5402 26220.7
 02 06 2013  03 21  -21.0644 25994.8 -03441.7 -07.5420 26221.7
 02 06 2013  03 22  -21.0643 25995.8 -03442.6 -07.5438 26222.8
 02 06 2013  03 23  -21.0641 25996.3 -03443.2 -07.5450 26223.3
 02 06 2013  03 24  -21.0634 25996.5 -03443.5 -07.5456 26223.5
 02 06 2013  03 25  -21.0627 25996.4 -03443.7 -07.5459 26223.5
 02 06 2013  03 26  -21.0627 25996.6 -03443.9 -07.5464 26223.7
 02 06 2013  03 27  -21.0628 25997.0 -03444.3 -07.5470 26224.2
 02 06 2013  03 28  -21.0638 25997.4 -03444.7 -07.5478 26224.7
 02 06 2013  03 29  -21.0639 25997.3 -03444.8 -07.5480 26224.6
 02 06 2013  03 30  -21.0633 25997.1 -03444.6 -07.5477 26224.3
 02 06 2013  03 31  -21.0632 25996.8 -03444.5 -07.5475 26224.0
 02 06 2013  03 32  -21.0627 25996.6 -03444.4 -07.5474 26223.8
 02 06 2013  03 33  -21.0620 25996.1 -03444.2 -07.5472 26223.3
 02 06 2013  03 34  -21.0611 25995.4 -03443.9 -07.5467 26222.5
 02 06 2013  03 35  -21.0607 25994.9 -03443.7 -07.5464 26222.0
 02 06 2013  03 36  -21.0606 25995.2 -03444.0 -07.5469 26222.4
 02 06 2013  03 37  -21.0600 25994.9 -03444.1 -07.5472 26222.1
 02 06 2013  03 38  -21.0599 25994.6 -03444.0 -07.5471 26221.7
 02 06 2013  03 39  -21.0592 25995.5 -03444.5 -07.5479 26222.7
 02 06 2013  03 40  -21.0593 25997.2 -03445.5 -07.5496 26224.5
 02 06 2013  03 41  -21.0602 25998.7 -03446.5 -07.5514 26226.1
 02 06 2013  03 42  -21.0614 25999.4 -03447.0 -07.5522 26226.9
 02 06 2013  03 43  -21.0617 26000.5 -03447.5 -07.5530 26228.1
 02 06 2013  03 44  -21.0616 26001.7 -03448.0 -07.5536 26229.3
 02 06 2013  03 45  -21.0616 26002.2 -03448.1 -07.5538 26229.8
 02 06 2013  03 46  -21.0617 26003.5 -03448.6 -07.5545 26231.2
 02 06 2013  03 47  -21.0618 26004.5 -03449.0 -07.5551 26232.2
 02 06 2013  03 48  -21.0621 26005.2 -03449.2 -07.5554 26232.9
 02 06 2013  03 49  -21.0622 26005.6 -03449.3 -07.5554 26233.4
 02 06 2013  03 50  -21.0620 26005.9 -03449.2 -07.5552 26233.7
 02 06 2013  03 51  -21.0619 26005.5 -03448.9 -07.5546 26233.2
 02 06 2013  03 52  -21.0621 26005.2 -03448.6 -07.5539 26232.9
 02 06 2013  03 53  -21.0626 26005.5 -03448.6 -07.5539 26233.2
 02 06 2013  03 54  -21.0629 26005.9 -03448.7 -07.5541 26233.6
 02 06 2013  03 55  -21.0631 26006.5 -03448.9 -07.5542 26234.2
 02 06 2013  03 56  -21.0633 26007.4 -03449.3 -07.5548 26235.1
 02 06 2013  03 57  -21.0638 26007.7 -03449.3 -07.5548 26235.4
 02 06 2013  03 58  -21.0643 26007.8 -03449.2 -07.5546 26235.5
 02 06 2013  03 59  -21.0647 26008.0 -03449.2 -07.5545 26235.8
 02 06 2013  04 00  -21.0654 26008.3 -03449.2 -07.5545 26236.0
 02 06 2013  04 01  -21.0665 26008.9 -03449.4 -07.5547 26236.7
 02 06 2013  04 02  -21.0676 26009.5 -03449.6 -07.5550 26237.2
 02 06 2013  04 03  -21.0686 26010.3 -03449.9 -07.5553 26238.1
 02 06 2013  04 04  -21.0700 26011.0 -03450.1 -07.5556 26238.8
 02 06 2013  04 05  -21.0712 26011.5 -03450.2 -07.5556 26239.3
 02 06 2013  04 06  -21.0722 26011.9 -03450.1 -07.5554 26239.7
 02 06 2013  04 07  -21.0740 26012.0 -03450.0 -07.5551 26239.8
 02 06 2013  04 08  -21.0757 26012.2 -03449.9 -07.5548 26240.0
 02 06 2013  04 09  -21.0771 26012.3 -03449.7 -07.5544 26240.0
 02 06 2013  04 10  -21.0767 26013.1 -03449.7 -07.5541 26240.8
 02 06 2013  04 11  -21.0766 26013.5 -03449.7 -07.5540 26241.2
 02 06 2013  04 12  -21.0765 26014.0 -03449.7 -07.5539 26241.7
 02 06 2013  04 13  -21.0755 26014.0 -03449.5 -07.5534 26241.7
 02 06 2013  04 14  -21.0747 26013.9 -03449.2 -07.5528 26241.6
 02 06 2013  04 15  -21.0742 26013.5 -03448.8 -07.5521 26241.1
 02 06 2013  04 16  -21.0738 26013.3 -03448.6 -07.5517 26240.9
 02 06 2013  04 17  -21.0735 26013.2 -03448.5 -07.5514 26240.8
 02 06 2013  04 18  -21.0732 26013.4 -03448.5 -07.5514 26240.9
 02 06 2013  04 19  -21.0732 26013.5 -03448.5 -07.5514 26241.1
 02 06 2013  04 20  -21.0730 26014.0 -03448.7 -07.5516 26241.6
 02 06 2013  04 21  -21.0727 26014.5 -03448.8 -07.5519 26242.1
 02 06 2013  04 22  -21.0723 26014.6 -03448.8 -07.5518 26242.2
 02 06 2013  04 23  -21.0724 26014.6 -03448.8 -07.5517 26242.2
 02 06 2013  04 24  -21.0724 26014.4 -03448.6 -07.5513 26242.0
 02 06 2013  04 25  -21.0723 26014.3 -03448.4 -07.5511 26241.9
 02 06 2013  04 26  -21.0721 26014.2 -03448.3 -07.5509 26241.7
 02 06 2013  04 27  -21.0722 26013.8 -03448.1 -07.5504 26241.3
 02 06 2013  04 28  -21.0718 26013.8 -03448.0 -07.5502 26241.3
 02 06 2013  04 29  -21.0710 26014.3 -03448.1 -07.5504 26241.8
 02 06 2013  04 30  -21.0710 26014.3 -03448.2 -07.5505 26241.8
 02 06 2013  04 31  -21.0714 26013.9 -03448.0 -07.5502 26241.4
 02 06 2013  04 32  -21.0709 26013.3 -03447.6 -07.5495 26240.8
 02 06 2013  04 33  -21.0696 26013.3 -03447.4 -07.5492 26240.8
 02 06 2013  04 34  -21.0678 26013.8 -03447.6 -07.5493 26241.2
 02 06 2013  04 35  -21.0659 26014.2 -03447.8 -07.5496 26241.7
 02 06 2013  04 36  -21.0647 26014.1 -03447.7 -07.5496 26241.5
 02 06 2013  04 37  -21.0642 26014.0 -03447.7 -07.5495 26241.5
 02 06 2013  04 38  -21.0634 26014.4 -03448.0 -07.5500 26241.9
 02 06 2013  04 39  -21.0622 26014.6 -03448.0 -07.5501 26242.1
 02 06 2013  04 40  -21.0614 26014.1 -03447.8 -07.5498 26241.6
 02 06 2013  04 41  -21.0603 26013.3 -03447.5 -07.5492 26240.7
 02 06 2013  04 42  -21.0594 26012.7 -03447.1 -07.5487 26240.1
 02 06 2013  04 43  -21.0589 26012.4 -03447.0 -07.5486 26239.8
 02 06 2013  04 44  -21.0586 26011.9 -03447.0 -07.5486 26239.3
 02 06 2013  04 45  -21.0580 26011.6 -03446.9 -07.5485 26239.0
 02 06 2013  04 46  -21.0578 26011.2 -03446.8 -07.5484 26238.5
 02 06 2013  04 47  -21.0577 26010.7 -03446.7 -07.5482 26238.1
 02 06 2013  04 48  -21.0579 26010.2 -03446.5 -07.5480 26237.5
 02 06 2013  04 49  -21.0583 26009.9 -03446.5 -07.5481 26237.3
 02 06 2013  04 50  -21.0584 26009.5 -03446.4 -07.5480 26236.8
 02 06 2013  04 51  -21.0579 26009.2 -03446.3 -07.5478 26236.5
 02 06 2013  04 52  -21.0576 26009.0 -03446.3 -07.5478 26236.3
 02 06 2013  04 53  -21.0576 26008.8 -03446.3 -07.5480 26236.2
 02 06 2013  04 54  -21.0574 26008.9 -03446.4 -07.5483 26236.3
 02 06 2013  04 55  -21.0567 26009.2 -03446.6 -07.5485 26236.5
 02 06 2013  04 56  -21.0561 26009.7 -03446.9 -07.5491 26237.1
 02 06 2013  04 57  -21.0559 26010.0 -03447.3 -07.5497 26237.5
 02 06 2013  04 58  -21.0563 26009.9 -03447.3 -07.5499 26237.3
 02 06 2013  04 59  -21.0564 26009.8 -03447.3 -07.5498 26237.2
 02 06 2013  05 00  -21.0576 26009.1 -03447.0 -07.5494 26236.5
 02 06 2013  05 01  -21.0585 26009.1 -03447.0 -07.5494 26236.5
 02 06 2013  05 02  -21.0588 26009.2 -03447.1 -07.5495 26236.7
 02 06 2013  05 03  -21.0585 26009.5 -03447.2 -07.5496 26236.9
 02 06 2013  05 04  -21.0583 26009.7 -03447.2 -07.5497 26237.2
 02 06 2013  05 05  -21.0587 26009.6 -03447.2 -07.5498 26237.0
 02 06 2013  05 06  -21.0594 26009.3 -03447.1 -07.5496 26236.7
 02 06 2013  05 07  -21.0601 26008.7 -03446.8 -07.5491 26236.1
 02 06 2013  05 08  -21.0602 26008.4 -03446.6 -07.5488 26235.8
 02 06 2013  05 09  -21.0605 26008.4 -03446.6 -07.5488 26235.7
 02 06 2013  05 10  -21.0610 26008.0 -03446.4 -07.5485 26235.3
 02 06 2013  05 11  -21.0616 26007.8 -03446.4 -07.5484 26235.1
 02 06 2013  05 12  -21.0622 26008.0 -03446.5 -07.5487 26235.4
 02 06 2013  05 13  -21.0630 26007.9 -03446.5 -07.5487 26235.3
 02 06 2013  05 14  -21.0639 26007.3 -03446.3 -07.5483 26234.6
