SAO LUIS EMBRACE-03 <275> 1 Min. Reported data

 DD MM YYYY  HH MM   D(Deg)  H(nT)   Z(nT)   I(Deg)   F(nT)

 02 10 2013  00 00  -21.0149 26011.6 -03489.1 -07.6397 26244.5
 02 10 2013  00 01  -21.0146 26011.4 -03489.0 -07.6396 26244.4
 02 10 2013  00 02  -21.0143 26011.5 -03489.0 -07.6397 26244.4
 02 10 2013  00 03  -21.0140 26011.6 -03489.1 -07.6399 26244.5
 02 10 2013  00 04  -21.0139 26011.5 -03489.1 -07.6399 26244.4
 02 10 2013  00 05  -21.0134 26011.4 -03489.2 -07.6400 26244.4
 02 10 2013  00 06  -21.0131 26011.2 -03489.1 -07.6399 26244.2
 02 10 2013  00 07  -21.0127 26010.9 -03489.0 -07.6398 26243.8
 02 10 2013  00 08  -21.0125 26010.6 -03488.9 -07.6397 26243.6
 02 10 2013  00 09  -21.0142 26010.8 -03489.0 -07.6399 26243.7
 02 10 2013  00 10  -21.0142 26010.8 -03489.1 -07.6401 26243.8
 02 10 2013  00 11  -21.0142 26010.9 -03489.3 -07.6404 26243.9
 02 10 2013  00 12  -21.0143 26011.0 -03489.4 -07.6407 26244.0
 02 10 2013  00 13  -21.0143 26011.0 -03489.5 -07.6408 26244.0
 02 10 2013  00 14  -21.0143 26011.0 -03489.6 -07.6410 26244.1
 02 10 2013  00 15  -21.0143 26011.1 -03489.6 -07.6411 26244.1
 02 10 2013  00 16  -21.0138 26011.2 -03489.7 -07.6413 26244.2
 02 10 2013  00 17  -21.0119 26011.1 -03489.7 -07.6412 26244.1
 02 10 2013  00 18  -21.0118 26011.3 -03489.8 -07.6414 26244.4
 02 10 2013  00 19  -21.0117 26011.5 -03489.9 -07.6417 26244.6
 02 10 2013  00 20  -21.0118 26011.7 -03490.1 -07.6419 26244.8
 02 10 2013  00 21  -21.0118 26011.9 -03490.2 -07.6421 26245.1
 02 10 2013  00 22  -21.0118 26011.9 -03490.2 -07.6422 26245.0
 02 10 2013  00 23  -21.0118 26011.9 -03490.2 -07.6421 26245.0
 02 10 2013  00 24  -21.0119 26012.0 -03490.3 -07.6422 26245.1
 02 10 2013  00 25  -21.0119 26012.1 -03490.3 -07.6423 26245.3
 02 10 2013  00 26  -21.0117 26012.3 -03490.4 -07.6424 26245.4
 02 10 2013  00 27  -21.0115 26012.6 -03490.5 -07.6426 26245.7
 02 10 2013  00 28  -21.0114 26012.8 -03490.6 -07.6427 26245.9
 02 10 2013  00 29  -21.0113 26013.0 -03490.7 -07.6429 26246.2
 02 10 2013  00 30  -21.0112 26013.3 -03490.8 -07.6431 26246.5
 02 10 2013  00 31  -21.0111 26013.6 -03491.0 -07.6433 26246.8
 02 10 2013  00 32  -21.0111 26014.0 -03491.1 -07.6436 26247.2
 02 10 2013  00 33  -21.0110 26014.2 -03491.3 -07.6437 26247.5
 02 10 2013  00 34  -21.0109 26014.4 -03491.3 -07.6438 26247.6
 02 10 2013  00 35  -21.0109 26014.6 -03491.4 -07.6438 26247.8
 02 10 2013  00 36  -21.0109 26014.8 -03491.4 -07.6439 26248.0
 02 10 2013  00 37  -21.0108 26015.0 -03491.4 -07.6439 26248.2
 02 10 2013  00 38  -21.0108 26015.2 -03491.5 -07.6439 26248.4
 02 10 2013  00 39  -21.0106 26015.3 -03491.5 -07.6439 26248.5
 02 10 2013  00 40  -21.0102 26015.4 -03491.5 -07.6438 26248.6
 02 10 2013  00 41  -21.0100 26015.5 -03491.5 -07.6439 26248.7
 02 10 2013  00 42  -21.0098 26015.5 -03491.5 -07.6438 26248.7
 02 10 2013  00 43  -21.0097 26015.4 -03491.4 -07.6437 26248.6
 02 10 2013  00 44  -21.0097 26015.2 -03491.3 -07.6435 26248.5
 02 10 2013  00 45  -21.0096 26015.1 -03491.2 -07.6434 26248.3
 02 10 2013  00 46  -21.0095 26014.9 -03491.1 -07.6432 26248.1
 02 10 2013  00 47  -21.0094 26014.8 -03491.0 -07.6431 26248.0
 02 10 2013  00 48  -21.0095 26014.7 -03491.0 -07.6430 26247.9
 02 10 2013  00 49  -21.0095 26014.7 -03491.0 -07.6431 26247.9
 02 10 2013  00 50  -21.0095 26014.6 -03491.0 -07.6431 26247.8
 02 10 2013  00 51  -21.0095 26014.5 -03491.0 -07.6431 26247.7
 02 10 2013  00 52  -21.0095 26014.4 -03491.0 -07.6431 26247.6
 02 10 2013  00 53  -21.0095 26014.2 -03490.9 -07.6430 26247.4
 02 10 2013  00 54  -21.0094 26014.1 -03490.8 -07.6428 26247.2
 02 10 2013  00 55  -21.0092 26013.7 -03490.7 -07.6427 26246.9
 02 10 2013  00 56  -21.0089 26013.5 -03490.6 -07.6424 26246.6
 02 10 2013  00 57  -21.0085 26013.2 -03490.5 -07.6423 26246.3
 02 10 2013  00 58  -21.0084 26013.3 -03490.5 -07.6424 26246.5
 02 10 2013  00 59  -21.0084 26013.6 -03490.8 -07.6428 26246.8
 02 10 2013  01 00  -21.0085 26013.8 -03490.9 -07.6432 26247.0
 02 10 2013  01 01  -21.0086 26014.0 -03491.1 -07.6434 26247.2
 02 10 2013  01 02  -21.0085 26014.0 -03491.1 -07.6435 26247.2
 02 10 2013  01 03  -21.0084 26014.1 -03491.2 -07.6436 26247.3
 02 10 2013  01 04  -21.0084 26014.0 -03491.2 -07.6436 26247.2
 02 10 2013  01 05  -21.0085 26014.0 -03491.2 -07.6436 26247.3
 02 10 2013  01 06  -21.0086 26013.8 -03491.1 -07.6435 26247.0
 02 10 2013  01 07  -21.0088 26013.7 -03491.1 -07.6435 26246.9
 02 10 2013  01 08  -21.0090 26013.6 -03491.0 -07.6434 26246.8
 02 10 2013  01 09  -21.0093 26013.4 -03491.0 -07.6433 26246.6
 02 10 2013  01 10  -21.0094 26013.2 -03490.8 -07.6431 26246.4
 02 10 2013  01 11  -21.0095 26013.2 -03490.8 -07.6431 26246.4
 02 10 2013  01 12  -21.0098 26013.3 -03490.9 -07.6433 26246.5
 02 10 2013  01 13  -21.0101 26013.3 -03491.0 -07.6434 26246.5
 02 10 2013  01 14  -21.0104 26013.3 -03491.0 -07.6435 26246.5
 02 10 2013  01 15  -21.0104 26013.4 -03491.0 -07.6434 26246.6
 02 10 2013  01 16  -21.0105 26013.8 -03491.1 -07.6436 26247.0
 02 10 2013  01 17  -21.0103 26014.9 -03491.7 -07.6444 26248.1
 02 10 2013  01 18  -21.0103 26014.9 -03491.7 -07.6445 26248.1
 02 10 2013  01 19  -21.0102 26015.3 -03491.9 -07.6448 26248.6
 02 10 2013  01 20  -21.0100 26015.9 -03492.2 -07.6452 26249.3
 02 10 2013  01 21  -21.0102 26015.6 -03492.0 -07.6448 26248.9
 02 10 2013  01 22  -21.0098 26016.5 -03492.3 -07.6453 26249.8
 02 10 2013  01 23  -21.0097 26016.4 -03492.2 -07.6452 26249.7
 02 10 2013  01 24  -21.0095 26017.1 -03492.5 -07.6456 26250.5
 02 10 2013  01 25  -21.0100 26017.2 -03492.5 -07.6456 26250.5
 02 10 2013  01 26  -21.0102 26017.8 -03492.8 -07.6460 26251.2
 02 10 2013  01 27  -21.0105 26017.9 -03492.8 -07.6459 26251.3
 02 10 2013  01 28  -21.0110 26018.1 -03492.8 -07.6459 26251.5
 02 10 2013  01 29  -21.0114 26017.7 -03492.6 -07.6455 26251.1
 02 10 2013  01 30  -21.0116 26017.2 -03492.2 -07.6449 26250.5
 02 10 2013  01 31  -21.0116 26016.5 -03491.7 -07.6441 26249.7
 02 10 2013  01 32  -21.0115 26016.0 -03491.4 -07.6436 26249.2
 02 10 2013  01 33  -21.0114 26015.9 -03491.3 -07.6434 26249.2
 02 10 2013  01 34  -21.0112 26016.0 -03491.4 -07.6434 26249.2
 02 10 2013  01 35  -21.0113 26016.2 -03491.5 -07.6437 26249.5
 02 10 2013  01 36  -21.0116 26016.2 -03491.5 -07.6437 26249.4
 02 10 2013  01 37  -21.0119 26016.2 -03491.5 -07.6438 26249.5
 02 10 2013  01 38  -21.0120 26016.2 -03491.5 -07.6437 26249.5
 02 10 2013  01 39  -21.0120 26016.4 -03491.6 -07.6439 26249.7
 02 10 2013  01 40  -21.0120 26016.1 -03491.5 -07.6436 26249.4
 02 10 2013  01 41  -21.0119 26016.2 -03491.5 -07.6436 26249.4
 02 10 2013  01 42  -21.0117 26016.1 -03491.4 -07.6435 26249.4
 02 10 2013  01 43  -21.0113 26016.2 -03491.4 -07.6435 26249.5
 02 10 2013  01 44  -21.0110 26016.8 -03491.7 -07.6439 26250.0
 02 10 2013  01 45  -21.0109 26017.0 -03491.8 -07.6442 26250.3
 02 10 2013  01 46  -21.0108 26016.8 -03491.8 -07.6441 26250.1
 02 10 2013  01 47  -21.0106 26016.5 -03491.5 -07.6437 26249.7
 02 10 2013  01 48  -21.0101 26016.6 -03491.6 -07.6438 26249.9
 02 10 2013  01 49  -21.0098 26016.4 -03491.5 -07.6435 26249.7
 02 10 2013  01 50  -21.0091 26016.8 -03491.6 -07.6438 26250.0
 02 10 2013  01 51  -21.0087 26016.9 -03491.7 -07.6440 26250.2
 02 10 2013  01 52  -21.0090 26016.9 -03491.7 -07.6440 26250.2
 02 10 2013  01 53  -21.0098 26017.0 -03491.8 -07.6442 26250.3
 02 10 2013  01 54  -21.0100 26017.2 -03491.9 -07.6443 26250.5
 02 10 2013  01 55  -21.0092 26017.5 -03492.0 -07.6444 26250.8
 02 10 2013  01 56  -21.0087 26018.2 -03492.2 -07.6447 26251.6
 02 10 2013  01 57  -21.0054 26024.7 -03495.0 -07.6487 26258.4
 02 10 2013  01 58  -20.9930 26040.8 -03502.2 -07.6597 26275.3
 02 10 2013  01 59  -20.9863 26056.8 -03510.5 -07.6730 26292.2
 02 10 2013  02 00  -20.9917 26061.5 -03513.4 -07.6779 26297.2
 02 10 2013  02 01  -20.9970 26061.1 -03513.2 -07.6775 26296.8
 02 10 2013  02 02  -20.9982 26055.1 -03508.8 -07.6698 26290.3
 02 10 2013  02 03  -20.9958 26051.8 -03505.3 -07.6632 26286.5
 02 10 2013  02 04  -20.9917 26055.0 -03505.4 -07.6624 26289.7
 02 10 2013  02 05  -20.9900 26060.6 -03507.2 -07.6647 26295.6
 02 10 2013  02 06  -20.9913 26064.2 -03509.3 -07.6681 26299.4
 02 10 2013  02 07  -20.9916 26065.3 -03509.6 -07.6685 26300.5
 02 10 2013  02 08  -20.9909 26062.2 -03507.3 -07.6645 26297.1
 02 10 2013  02 09  -20.9901 26059.7 -03505.0 -07.6603 26294.4
 02 10 2013  02 10  -20.9912 26059.8 -03504.4 -07.6588 26294.3
 02 10 2013  02 11  -20.9928 26061.2 -03504.9 -07.6596 26295.8
 02 10 2013  02 12  -20.9920 26060.3 -03504.1 -07.6581 26294.8
 02 10 2013  02 13  -20.9915 26059.3 -03503.3 -07.6566 26293.8
 02 10 2013  02 14  -20.9920 26060.0 -03503.2 -07.6563 26294.4
 02 10 2013  02 15  -20.9923 26058.1 -03502.4 -07.6550 26292.5
 02 10 2013  02 16  -20.9917 26058.2 -03502.0 -07.6541 26292.5
 02 10 2013  02 17  -20.9924 26059.6 -03502.6 -07.6550 26293.9
 02 10 2013  02 18  -20.9924 26058.9 -03502.3 -07.6546 26293.2
 02 10 2013  02 19  -20.9924 26058.0 -03501.6 -07.6533 26292.2
 02 10 2013  02 20  -20.9936 26058.4 -03501.6 -07.6533 26292.6
 02 10 2013  02 21  -20.9949 26057.8 -03501.3 -07.6528 26292.0
 02 10 2013  02 22  -20.9948 26057.5 -03500.9 -07.6520 26291.7
 02 10 2013  02 23  -20.9942 26058.0 -03501.0 -07.6521 26292.2
 02 10 2013  02 24  -20.9932 26058.7 -03501.2 -07.6522 26292.9
 02 10 2013  02 25  -20.9930 26058.7 -03501.1 -07.6521 26292.9
 02 10 2013  02 26  -20.9930 26059.1 -03501.2 -07.6522 26293.2
 02 10 2013  02 27  -20.9929 26058.4 -03500.8 -07.6516 26292.6
 02 10 2013  02 28  -20.9922 26057.6 -03500.2 -07.6505 26291.7
 02 10 2013  02 29  -20.9914 26057.0 -03499.7 -07.6496 26291.0
 02 10 2013  02 30  -20.9902 26057.4 -03499.8 -07.6496 26291.4
 02 10 2013  02 31  -20.9887 26057.9 -03500.0 -07.6499 26291.9
 02 10 2013  02 32  -20.9873 26058.3 -03500.1 -07.6501 26292.3
 02 10 2013  02 33  -20.9868 26058.2 -03500.1 -07.6502 26292.2
 02 10 2013  02 34  -20.9861 26057.5 -03499.8 -07.6496 26291.5
 02 10 2013  02 35  -20.9852 26058.0 -03499.9 -07.6498 26292.0
 02 10 2013  02 36  -20.9847 26058.3 -03500.1 -07.6501 26292.3
 02 10 2013  02 37  -20.9845 26057.9 -03500.0 -07.6499 26291.9
 02 10 2013  02 38  -20.9853 26056.8 -03499.4 -07.6491 26290.8
 02 10 2013  02 39  -20.9854 26056.5 -03499.2 -07.6485 26290.4
 02 10 2013  02 40  -20.9858 26056.1 -03499.0 -07.6483 26290.0
 02 10 2013  02 41  -20.9850 26056.3 -03499.0 -07.6483 26290.2
 02 10 2013  02 42  -20.9847 26055.5 -03498.6 -07.6476 26289.3
 02 10 2013  02 43  -20.9835 26055.6 -03498.5 -07.6475 26289.4
 02 10 2013  02 44  -20.9824 26056.0 -03498.8 -07.6479 26289.8
 02 10 2013  02 45  -20.9820 26055.3 -03498.6 -07.6476 26289.1
 02 10 2013  02 46  -20.9819 26055.5 -03498.7 -07.6478 26289.4
 02 10 2013  02 47  -20.9834 26055.5 -03498.9 -07.6483 26289.4
 02 10 2013  02 48  -20.9843 26056.1 -03499.2 -07.6487 26290.0
 02 10 2013  02 49  -20.9846 26057.0 -03499.7 -07.6496 26291.0
 02 10 2013  02 50  -20.9854 26059.0 -03500.8 -07.6513 26293.1
 02 10 2013  02 51  -20.9863 26058.2 -03500.5 -07.6509 26292.2
 02 10 2013  02 52  -20.9885 26058.0 -03500.4 -07.6508 26292.0
 02 10 2013  02 53  -20.9901 26056.3 -03499.4 -07.6492 26290.2
 02 10 2013  02 54  -20.9919 26055.0 -03498.7 -07.6480 26288.9
 02 10 2013  02 55  -20.9928 26054.0 -03498.0 -07.6467 26287.7
 02 10 2013  02 56  -20.9926 26053.4 -03497.7 -07.6463 26287.2
 02 10 2013  02 57  -20.9925 26053.3 -03497.6 -07.6460 26287.0
 02 10 2013  02 58  -20.9928 26054.1 -03498.0 -07.6467 26287.9
 02 10 2013  02 59  -20.9936 26054.4 -03498.3 -07.6474 26288.2
 02 10 2013  03 00  -20.9958 26053.9 -03498.3 -07.6473 26287.7
 02 10 2013  03 01  -20.9980 26052.4 -03497.6 -07.6463 26286.1
 02 10 2013  03 02  -20.9992 26051.8 -03497.2 -07.6457 26285.5
 02 10 2013  03 03  -21.0019 26050.6 -03496.6 -07.6448 26284.2
 02 10 2013  03 04  -21.0021 26049.5 -03496.0 -07.6437 26283.0
 02 10 2013  03 05  -21.0024 26048.0 -03495.2 -07.6425 26281.5
 02 10 2013  03 06  -21.0018 26046.7 -03494.5 -07.6413 26280.0
 02 10 2013  03 07  -21.0009 26045.6 -03494.0 -07.6405 26279.0
 02 10 2013  03 08  -21.0008 26043.9 -03493.2 -07.6394 26277.1
 02 10 2013  03 09  -21.0003 26041.7 -03492.2 -07.6379 26274.8
 02 10 2013  03 10  -20.9994 26039.8 -03491.3 -07.6365 26272.8
 02 10 2013  03 11  -20.9982 26038.5 -03490.8 -07.6357 26271.5
 02 10 2013  03 12  -20.9975 26037.7 -03490.7 -07.6357 26270.6
 02 10 2013  03 13  -20.9975 26037.0 -03490.6 -07.6358 26270.0
 02 10 2013  03 14  -20.9970 26036.0 -03490.4 -07.6355 26268.9
 02 10 2013  03 15  -20.9964 26035.6 -03490.3 -07.6355 26268.5
 02 10 2013  03 16  -20.9968 26035.0 -03490.3 -07.6355 26267.9
 02 10 2013  03 17  -20.9976 26034.2 -03490.1 -07.6355 26267.1
 02 10 2013  03 18  -20.9992 26033.2 -03490.0 -07.6354 26266.1
 02 10 2013  03 19  -21.0000 26032.6 -03489.7 -07.6351 26265.5
 02 10 2013  03 20  -21.0012 26031.5 -03489.4 -07.6346 26264.4
 02 10 2013  03 21  -21.0020 26030.3 -03488.9 -07.6339 26263.1
 02 10 2013  03 22  -21.0021 26029.4 -03488.4 -07.6331 26262.1
 02 10 2013  03 23  -21.0025 26028.6 -03488.0 -07.6326 26261.3
 02 10 2013  03 24  -21.0034 26028.0 -03487.8 -07.6323 26260.6
 02 10 2013  03 25  -21.0042 26027.0 -03487.5 -07.6318 26259.6
 02 10 2013  03 26  -21.0044 26025.5 -03486.8 -07.6308 26258.1
 02 10 2013  03 27  -21.0035 26024.6 -03486.4 -07.6303 26257.1
 02 10 2013  03 28  -21.0035 26023.0 -03485.8 -07.6294 26255.5
 02 10 2013  03 29  -21.0039 26021.2 -03485.1 -07.6284 26253.6
 02 10 2013  03 30  -21.0050 26020.3 -03484.8 -07.6279 26252.6
 02 10 2013  03 31  -21.0067 26019.6 -03484.7 -07.6280 26251.9
 02 10 2013  03 32  -21.0079 26018.7 -03484.6 -07.6279 26251.0
 02 10 2013  03 33  -21.0098 26017.2 -03484.0 -07.6273 26249.4
 02 10 2013  03 34  -21.0115 26015.6 -03483.3 -07.6262 26247.8
 02 10 2013  03 35  -21.0124 26015.4 -03483.4 -07.6263 26247.6
 02 10 2013  03 36  -21.0140 26014.1 -03483.0 -07.6259 26246.2
 02 10 2013  03 37  -21.0146 26012.4 -03482.3 -07.6248 26244.4
 02 10 2013  03 38  -21.0163 26010.6 -03481.6 -07.6239 26242.6
 02 10 2013  03 39  -21.0181 26009.2 -03481.1 -07.6231 26241.1
 02 10 2013  03 40  -21.0196 26008.1 -03480.7 -07.6227 26240.0
 02 10 2013  03 41  -21.0208 26007.4 -03480.6 -07.6226 26239.3
 02 10 2013  03 42  -21.0212 26007.7 -03480.9 -07.6233 26239.6
 02 10 2013  03 43  -21.0212 26008.2 -03481.5 -07.6244 26240.2
 02 10 2013  03 44  -21.0219 26008.0 -03481.8 -07.6250 26240.0
 02 10 2013  03 45  -21.0233 26007.5 -03481.8 -07.6252 26239.6
 02 10 2013  03 46  -21.0246 26006.1 -03481.3 -07.6246 26238.1
 02 10 2013  03 47  -21.0251 26004.9 -03480.8 -07.6239 26236.9
 02 10 2013  03 48  -21.0243 26004.6 -03480.7 -07.6237 26236.5
 02 10 2013  03 49  -21.0235 26004.6 -03480.9 -07.6240 26236.5
 02 10 2013  03 50  -21.0233 26003.7 -03480.8 -07.6240 26235.7
 02 10 2013  03 51  -21.0227 26002.6 -03480.4 -07.6235 26234.5
 02 10 2013  03 52  -21.0218 26002.3 -03480.4 -07.6237 26234.2
 02 10 2013  03 53  -21.0212 26002.7 -03480.9 -07.6246 26234.6
 02 10 2013  03 54  -21.0201 26002.7 -03481.2 -07.6253 26234.7
 02 10 2013  03 55  -21.0185 26002.8 -03481.5 -07.6259 26234.8
 02 10 2013  03 56  -21.0170 26002.9 -03481.8 -07.6266 26235.0
 02 10 2013  03 57  -21.0155 26003.5 -03482.4 -07.6276 26235.7
 02 10 2013  03 58  -21.0140 26004.2 -03483.0 -07.6288 26236.4
 02 10 2013  03 59  -21.0125 26004.8 -03483.7 -07.6300 26237.1
 02 10 2013  04 00  -21.0125 26003.0 -03483.2 -07.6296 26235.2
 02 10 2013  04 01  -21.0130 26001.5 -03482.6 -07.6287 26233.6
 02 10 2013  04 02  -21.0136 26000.3 -03482.2 -07.6281 26232.4
 02 10 2013  04 03  -21.0151 25999.6 -03482.1 -07.6282 26231.8
 02 10 2013  04 04  -21.0157 25999.0 -03482.1 -07.6283 26231.1
 02 10 2013  04 05  -21.0159 25998.6 -03482.2 -07.6287 26230.8
 02 10 2013  04 06  -21.0160 25997.7 -03482.1 -07.6286 26229.9
 02 10 2013  04 07  -21.0173 25996.8 -03481.9 -07.6285 26228.9
 02 10 2013  04 08  -21.0168 25996.9 -03482.1 -07.6290 26229.1
 02 10 2013  04 09  -21.0156 25996.3 -03482.1 -07.6291 26228.5
 02 10 2013  04 10  -21.0154 25995.1 -03481.8 -07.6289 26227.2
 02 10 2013  04 11  -21.0158 25993.4 -03481.3 -07.6282 26225.4
 02 10 2013  04 12  -21.0167 25992.4 -03481.2 -07.6283 26224.5
 02 10 2013  04 13  -21.0183 25992.2 -03481.4 -07.6289 26224.3
 02 10 2013  04 14  -21.0200 25991.8 -03481.7 -07.6295 26224.0
 02 10 2013  04 15  -21.0225 25991.3 -03481.8 -07.6298 26223.5
 02 10 2013  04 16  -21.0253 25990.6 -03481.7 -07.6299 26222.8
 02 10 2013  04 17  -21.0268 25990.7 -03481.8 -07.6302 26222.8
 02 10 2013  04 18  -21.0265 25992.2 -03482.6 -07.6313 26224.4
 02 10 2013  04 19  -21.0273 25992.6 -03483.1 -07.6323 26224.9
 02 10 2013  04 20  -21.0264 25996.2 -03484.4 -07.6342 26228.7
 02 10 2013  04 21  -21.0220 26005.0 -03489.0 -07.6416 26238.0
 02 10 2013  04 22  -21.0223 26008.3 -03491.5 -07.6461 26241.6
 02 10 2013  04 23  -21.0266 26005.2 -03490.4 -07.6445 26238.4
 02 10 2013  04 24  -21.0323 25998.3 -03486.7 -07.6386 26231.0
 02 10 2013  04 25  -21.0345 25995.6 -03484.4 -07.6344 26228.1
 02 10 2013  04 26  -21.0365 25993.4 -03483.2 -07.6322 26225.8
 02 10 2013  04 27  -21.0427 25989.3 -03481.4 -07.6296 26221.5
 02 10 2013  04 28  -21.0476 25983.1 -03478.1 -07.6243 26214.9
 02 10 2013  04 29  -21.0473 25981.6 -03476.8 -07.6219 26213.2
 02 10 2013  04 30  -21.0453 25983.8 -03477.9 -07.6235 26215.6
 02 10 2013  04 31  -21.0452 25987.8 -03480.3 -07.6278 26219.8
 02 10 2013  04 32  -21.0482 25990.1 -03482.3 -07.6313 26222.4
 02 10 2013  04 33  -21.0501 25991.1 -03483.1 -07.6328 26223.5
 02 10 2013  04 34  -21.0514 25992.2 -03483.6 -07.6335 26224.6
 02 10 2013  04 35  -21.0445 26005.0 -03488.7 -07.6409 26237.9
 02 10 2013  04 36  -21.0386 26025.6 -03499.6 -07.6584 26259.8
 02 10 2013  04 37  -21.0406 26033.6 -03505.0 -07.6679 26268.5
 02 10 2013  04 38  -21.0403 26031.4 -03503.7 -07.6657 26266.2
 02 10 2013  04 39  -21.0384 26023.3 -03498.2 -07.6561 26257.4
 02 10 2013  04 40  -21.0358 26012.1 -03491.1 -07.6441 26245.4
 02 10 2013  04 41  -21.0323 26002.4 -03485.0 -07.6336 26234.9
 02 10 2013  04 42  -21.0290 26001.3 -03483.4 -07.6304 26233.6
 02 10 2013  04 43  -21.0254 26001.8 -03484.5 -07.6326 26234.3
 02 10 2013  04 44  -21.0224 25997.0 -03482.7 -07.6303 26229.2
 02 10 2013  04 45  -21.0179 25992.8 -03481.0 -07.6277 26224.9
 02 10 2013  04 46  -21.0179 25987.7 -03479.2 -07.6254 26219.6
 02 10 2013  04 47  -21.0193 25983.9 -03478.0 -07.6237 26215.6
 02 10 2013  04 48  -21.0129 25984.9 -03478.7 -07.6252 26216.7
 02 10 2013  04 49  -21.0042 25985.8 -03480.0 -07.6276 26217.7
 02 10 2013  04 50  -21.0087 25983.3 -03480.0 -07.6284 26215.3
 02 10 2013  04 51  -21.0152 25983.0 -03481.2 -07.6310 26215.1
 02 10 2013  04 52  -21.0128 25983.1 -03481.8 -07.6323 26215.3
 02 10 2013  04 53  -21.0082 25983.3 -03482.2 -07.6332 26215.6
 02 10 2013  04 54  -21.0030 25984.6 -03483.1 -07.6346 26217.0
 02 10 2013  04 55  -21.0001 25986.0 -03484.5 -07.6372 26218.6
 02 10 2013  04 56  -20.9981 25986.5 -03485.5 -07.6392 26219.2
 02 10 2013  04 57  -20.9957 25986.1 -03485.9 -07.6404 26218.9
 02 10 2013  04 58  -20.9944 25985.8 -03486.4 -07.6414 26218.7
 02 10 2013  04 59  -20.9932 25986.7 -03487.2 -07.6429 26219.6
 02 10 2013  05 00  -20.9918 25988.2 -03488.6 -07.6455 26221.3
 02 10 2013  05 01  -20.9893 25990.7 -03490.4 -07.6486 26224.0
 02 10 2013  05 02  -20.9849 25994.6 -03492.7 -07.6525 26228.2
 02 10 2013  05 03  -20.9844 25995.7 -03494.0 -07.6550 26229.4
 02 10 2013  05 04  -20.9849 25995.9 -03494.8 -07.6567 26229.8
 02 10 2013  05 05  -20.9856 25994.3 -03494.3 -07.6561 26228.1
 02 10 2013  05 06  -20.9845 25995.0 -03494.7 -07.6567 26228.8
 02 10 2013  05 07  -20.9828 25995.8 -03495.2 -07.6576 26229.7
 02 10 2013  05 08  -20.9677 26010.5 -03502.3 -07.6686 26245.3
 02 10 2013  05 09  -20.9619 26014.6 -03505.7 -07.6748 26249.8
 02 10 2013  05 10  -20.9645 26016.4 -03507.9 -07.6790 26251.8
 02 10 2013  05 11  -20.9679 26018.3 -03509.1 -07.6812 26253.9
 02 10 2013  05 12  -20.9683 26020.3 -03510.0 -07.6826 26256.0
 02 10 2013  05 13  -20.9720 26021.2 -03510.4 -07.6831 26256.9
 02 10 2013  05 14  -20.9774 26020.5 -03510.1 -07.6826 26256.2
