SAO LUIS EMBRACE-03 <213> 1 Min. Reported data

 DD MM YYYY  HH MM   D(Deg)  H(nT)   Z(nT)   I(Deg)   F(nT)

 01 08 2013  00 00  -21.0315 26030.1 -03470.0 -07.5932 26260.4
 01 08 2013  00 01  -21.0314 26030.2 -03470.1 -07.5933 26260.5
 01 08 2013  00 02  -21.0315 26030.2 -03470.1 -07.5933 26260.4
 01 08 2013  00 03  -21.0315 26030.2 -03470.1 -07.5933 26260.5
 01 08 2013  00 04  -21.0314 26030.3 -03470.1 -07.5933 26260.6
 01 08 2013  00 05  -21.0313 26030.4 -03470.2 -07.5934 26260.6
 01 08 2013  00 06  -21.0315 26030.5 -03470.2 -07.5935 26260.8
 01 08 2013  00 07  -21.0317 26030.5 -03470.2 -07.5936 26260.8
 01 08 2013  00 08  -21.0317 26030.4 -03470.2 -07.5935 26260.7
 01 08 2013  00 09  -21.0317 26030.2 -03470.1 -07.5933 26260.5
 01 08 2013  00 10  -21.0317 26030.1 -03470.0 -07.5932 26260.4
 01 08 2013  00 11  -21.0316 26030.1 -03470.0 -07.5931 26260.3
 01 08 2013  00 12  -21.0316 26030.1 -03470.0 -07.5932 26260.4
 01 08 2013  00 13  -21.0316 26030.2 -03470.1 -07.5932 26260.4
 01 08 2013  00 14  -21.0317 26030.3 -03470.1 -07.5934 26260.5
 01 08 2013  00 15  -21.0317 26030.4 -03470.2 -07.5934 26260.6
 01 08 2013  00 16  -21.0315 26030.4 -03470.2 -07.5935 26260.7
 01 08 2013  00 17  -21.0313 26030.4 -03470.2 -07.5934 26260.7
 01 08 2013  00 18  -21.0312 26030.3 -03470.1 -07.5934 26260.6
 01 08 2013  00 19  -21.0309 26030.3 -03470.1 -07.5933 26260.6
 01 08 2013  00 20  -21.0308 26030.2 -03470.1 -07.5932 26260.5
 01 08 2013  00 21  -21.0306 26030.2 -03470.0 -07.5932 26260.4
 01 08 2013  00 22  -21.0305 26030.0 -03470.0 -07.5932 26260.3
 01 08 2013  00 23  -21.0302 26029.9 -03470.0 -07.5931 26260.2
 01 08 2013  00 24  -21.0300 26029.9 -03470.0 -07.5931 26260.1
 01 08 2013  00 25  -21.0299 26029.8 -03470.0 -07.5932 26260.1
 01 08 2013  00 26  -21.0300 26029.9 -03470.1 -07.5933 26260.1
 01 08 2013  00 27  -21.0300 26029.9 -03470.1 -07.5934 26260.1
 01 08 2013  00 28  -21.0300 26029.9 -03470.1 -07.5935 26260.2
 01 08 2013  00 29  -21.0298 26029.9 -03470.1 -07.5935 26260.1
 01 08 2013  00 30  -21.0295 26029.9 -03470.1 -07.5935 26260.2
 01 08 2013  00 31  -21.0291 26029.7 -03470.1 -07.5935 26260.0
 01 08 2013  00 32  -21.0289 26029.6 -03470.0 -07.5934 26259.8
 01 08 2013  00 33  -21.0289 26029.5 -03470.0 -07.5934 26259.8
 01 08 2013  00 34  -21.0290 26029.5 -03470.1 -07.5936 26259.8
 01 08 2013  00 35  -21.0292 26029.5 -03470.2 -07.5937 26259.8
 01 08 2013  00 36  -21.0290 26029.5 -03470.2 -07.5938 26259.8
 01 08 2013  00 37  -21.0286 26029.6 -03470.2 -07.5938 26259.9
 01 08 2013  00 38  -21.0286 26029.6 -03470.2 -07.5938 26259.9
 01 08 2013  00 39  -21.0286 26029.5 -03470.2 -07.5938 26259.8
 01 08 2013  00 40  -21.0286 26029.4 -03470.2 -07.5937 26259.7
 01 08 2013  00 41  -21.0287 26029.2 -03470.1 -07.5936 26259.5
 01 08 2013  00 42  -21.0286 26029.0 -03469.9 -07.5934 26259.2
 01 08 2013  00 43  -21.0285 26028.8 -03469.9 -07.5932 26259.1
 01 08 2013  00 44  -21.0284 26028.6 -03469.8 -07.5932 26258.8
 01 08 2013  00 45  -21.0284 26028.4 -03469.8 -07.5931 26258.6
 01 08 2013  00 46  -21.0285 26028.3 -03469.7 -07.5931 26258.5
 01 08 2013  00 47  -21.0284 26028.2 -03469.8 -07.5932 26258.5
 01 08 2013  00 48  -21.0284 26028.1 -03469.8 -07.5932 26258.3
 01 08 2013  00 49  -21.0285 26028.1 -03469.8 -07.5933 26258.3
 01 08 2013  00 50  -21.0284 26028.1 -03469.9 -07.5934 26258.4
 01 08 2013  00 51  -21.0283 26028.1 -03469.9 -07.5935 26258.4
 01 08 2013  00 52  -21.0282 26028.1 -03469.9 -07.5936 26258.4
 01 08 2013  00 53  -21.0281 26028.1 -03470.0 -07.5937 26258.4
 01 08 2013  00 54  -21.0281 26028.2 -03470.1 -07.5938 26258.5
 01 08 2013  00 55  -21.0282 26028.4 -03470.2 -07.5941 26258.8
 01 08 2013  00 56  -21.0281 26028.6 -03470.3 -07.5943 26259.0
 01 08 2013  00 57  -21.0279 26028.8 -03470.4 -07.5944 26259.1
 01 08 2013  00 58  -21.0275 26028.8 -03470.4 -07.5945 26259.2
 01 08 2013  00 59  -21.0272 26028.9 -03470.4 -07.5945 26259.2
 01 08 2013  01 00  -21.0272 26029.0 -03470.6 -07.5947 26259.3
 01 08 2013  01 01  -21.0273 26029.1 -03470.7 -07.5949 26259.4
 01 08 2013  01 02  -21.0274 26029.3 -03470.7 -07.5950 26259.6
 01 08 2013  01 03  -21.0273 26029.4 -03470.8 -07.5951 26259.8
 01 08 2013  01 04  -21.0272 26029.6 -03470.9 -07.5952 26260.0
 01 08 2013  01 05  -21.0273 26029.6 -03470.9 -07.5953 26260.0
 01 08 2013  01 06  -21.0275 26029.6 -03470.9 -07.5952 26260.0
 01 08 2013  01 07  -21.0276 26029.6 -03470.8 -07.5951 26260.0
 01 08 2013  01 08  -21.0275 26029.5 -03470.7 -07.5949 26259.8
 01 08 2013  01 09  -21.0274 26029.3 -03470.6 -07.5947 26259.6
 01 08 2013  01 10  -21.0276 26029.0 -03470.5 -07.5945 26259.4
 01 08 2013  01 11  -21.0278 26028.9 -03470.4 -07.5944 26259.2
 01 08 2013  01 12  -21.0279 26028.7 -03470.3 -07.5943 26259.0
 01 08 2013  01 13  -21.0280 26028.6 -03470.2 -07.5941 26258.9
 01 08 2013  01 14  -21.0280 26028.5 -03470.2 -07.5941 26258.8
 01 08 2013  01 15  -21.0281 26028.4 -03470.2 -07.5941 26258.7
 01 08 2013  01 16  -21.0280 26028.4 -03470.2 -07.5941 26258.7
 01 08 2013  01 17  -21.0278 26028.3 -03470.2 -07.5941 26258.6
 01 08 2013  01 18  -21.0277 26028.3 -03470.2 -07.5941 26258.6
 01 08 2013  01 19  -21.0278 26028.3 -03470.2 -07.5942 26258.6
 01 08 2013  01 20  -21.0278 26028.3 -03470.2 -07.5942 26258.6
 01 08 2013  01 21  -21.0277 26028.3 -03470.3 -07.5943 26258.6
 01 08 2013  01 22  -21.0278 26028.3 -03470.3 -07.5943 26258.6
 01 08 2013  01 23  -21.0278 26028.2 -03470.2 -07.5942 26258.5
 01 08 2013  01 24  -21.0278 26028.1 -03470.2 -07.5942 26258.4
 01 08 2013  01 25  -21.0278 26028.1 -03470.2 -07.5943 26258.4
 01 08 2013  01 26  -21.0279 26028.0 -03470.2 -07.5942 26258.4
 01 08 2013  01 27  -21.0280 26027.9 -03470.2 -07.5942 26258.2
 01 08 2013  01 28  -21.0280 26027.9 -03470.1 -07.5941 26258.2
 01 08 2013  01 29  -21.0279 26027.8 -03470.1 -07.5940 26258.1
 01 08 2013  01 30  -21.0278 26027.6 -03470.0 -07.5939 26257.9
 01 08 2013  01 31  -21.0277 26027.5 -03470.0 -07.5938 26257.8
 01 08 2013  01 32  -21.0277 26027.4 -03470.0 -07.5938 26257.7
 01 08 2013  01 33  -21.0277 26027.4 -03469.9 -07.5938 26257.7
 01 08 2013  01 34  -21.0277 26027.3 -03469.9 -07.5937 26257.6
 01 08 2013  01 35  -21.0277 26027.2 -03469.9 -07.5937 26257.5
 01 08 2013  01 36  -21.0276 26027.2 -03469.9 -07.5937 26257.4
 01 08 2013  01 37  -21.0275 26027.1 -03469.8 -07.5937 26257.4
 01 08 2013  01 38  -21.0276 26027.0 -03469.8 -07.5937 26257.3
 01 08 2013  01 39  -21.0276 26026.9 -03469.8 -07.5936 26257.2
 01 08 2013  01 40  -21.0274 26026.8 -03469.8 -07.5936 26257.1
 01 08 2013  01 41  -21.0273 26026.8 -03469.7 -07.5935 26257.0
 01 08 2013  01 42  -21.0273 26026.7 -03469.7 -07.5935 26256.9
 01 08 2013  01 43  -21.0273 26026.6 -03469.7 -07.5935 26256.9
 01 08 2013  01 44  -21.0273 26026.5 -03469.7 -07.5935 26256.8
 01 08 2013  01 45  -21.0273 26026.5 -03469.7 -07.5935 26256.8
 01 08 2013  01 46  -21.0273 26026.4 -03469.7 -07.5935 26256.7
 01 08 2013  01 47  -21.0272 26026.4 -03469.7 -07.5935 26256.6
 01 08 2013  01 48  -21.0271 26026.4 -03469.7 -07.5935 26256.7
 01 08 2013  01 49  -21.0272 26026.4 -03469.7 -07.5935 26256.7
 01 08 2013  01 50  -21.0271 26026.4 -03469.7 -07.5935 26256.6
 01 08 2013  01 51  -21.0271 26026.4 -03469.7 -07.5936 26256.6
 01 08 2013  01 52  -21.0271 26026.5 -03469.8 -07.5937 26256.8
 01 08 2013  01 53  -21.0271 26026.6 -03469.8 -07.5938 26256.9
 01 08 2013  01 54  -21.0272 26026.7 -03469.9 -07.5939 26257.0
 01 08 2013  01 55  -21.0271 26026.8 -03469.9 -07.5939 26257.0
 01 08 2013  01 56  -21.0270 26026.8 -03469.9 -07.5938 26257.0
 01 08 2013  01 57  -21.0269 26026.7 -03469.9 -07.5938 26257.0
 01 08 2013  01 58  -21.0267 26026.7 -03469.8 -07.5938 26257.0
 01 08 2013  01 59  -21.0267 26026.8 -03469.8 -07.5937 26257.0
 01 08 2013  02 00  -21.0267 26026.8 -03469.9 -07.5939 26257.1
 01 08 2013  02 01  -21.0267 26026.8 -03469.9 -07.5939 26257.1
 01 08 2013  02 02  -21.0267 26026.8 -03469.9 -07.5939 26257.1
 01 08 2013  02 03  -21.0266 26027.0 -03469.9 -07.5939 26257.2
 01 08 2013  02 04  -21.0268 26027.1 -03470.0 -07.5941 26257.4
 01 08 2013  02 05  -21.0268 26027.1 -03470.0 -07.5940 26257.4
 01 08 2013  02 06  -21.0268 26027.1 -03470.0 -07.5940 26257.4
 01 08 2013  02 07  -21.0268 26027.0 -03469.9 -07.5939 26257.2
 01 08 2013  02 08  -21.0267 26026.8 -03469.8 -07.5937 26257.1
 01 08 2013  02 09  -21.0266 26026.6 -03469.7 -07.5936 26256.9
 01 08 2013  02 10  -21.0265 26026.5 -03469.7 -07.5935 26256.8
 01 08 2013  02 11  -21.0265 26026.4 -03469.6 -07.5934 26256.6
 01 08 2013  02 12  -21.0265 26026.3 -03469.6 -07.5934 26256.5
 01 08 2013  02 13  -21.0266 26026.1 -03469.6 -07.5934 26256.4
 01 08 2013  02 14  -21.0268 26026.0 -03469.5 -07.5933 26256.2
 01 08 2013  02 15  -21.0270 26025.9 -03469.5 -07.5933 26256.2
 01 08 2013  02 16  -21.0273 26025.9 -03469.5 -07.5934 26256.1
 01 08 2013  02 17  -21.0276 26025.9 -03469.6 -07.5934 26256.1
 01 08 2013  02 18  -21.0278 26025.9 -03469.6 -07.5934 26256.1
 01 08 2013  02 19  -21.0279 26025.8 -03469.6 -07.5935 26256.1
 01 08 2013  02 20  -21.0279 26025.8 -03469.5 -07.5934 26256.0
 01 08 2013  02 21  -21.0277 26025.7 -03469.5 -07.5933 26255.9
 01 08 2013  02 22  -21.0275 26025.6 -03469.4 -07.5933 26255.8
 01 08 2013  02 23  -21.0273 26025.5 -03469.4 -07.5932 26255.7
 01 08 2013  02 24  -21.0272 26025.5 -03469.4 -07.5933 26255.7
 01 08 2013  02 25  -21.0271 26025.5 -03469.5 -07.5933 26255.8
 01 08 2013  02 26  -21.0271 26025.7 -03469.6 -07.5935 26255.9
 01 08 2013  02 27  -21.0272 26025.7 -03469.6 -07.5936 26256.0
 01 08 2013  02 28  -21.0272 26025.8 -03469.7 -07.5937 26256.0
 01 08 2013  02 29  -21.0272 26025.8 -03469.7 -07.5936 26256.0
 01 08 2013  02 30  -21.0273 26025.7 -03469.6 -07.5936 26256.0
 01 08 2013  02 31  -21.0276 26025.7 -03469.6 -07.5936 26255.9
 01 08 2013  02 32  -21.0277 26025.6 -03469.6 -07.5936 26255.9
 01 08 2013  02 33  -21.0278 26025.7 -03469.6 -07.5936 26255.9
 01 08 2013  02 34  -21.0278 26025.5 -03469.6 -07.5935 26255.7
 01 08 2013  02 35  -21.0277 26025.6 -03469.6 -07.5936 26255.8
 01 08 2013  02 36  -21.0279 26025.5 -03469.6 -07.5935 26255.8
 01 08 2013  02 37  -21.0282 26025.4 -03469.6 -07.5935 26255.7
 01 08 2013  02 38  -21.0283 26025.4 -03469.5 -07.5935 26255.6
 01 08 2013  02 39  -21.0282 26025.3 -03469.5 -07.5934 26255.5
 01 08 2013  02 40  -21.0281 26025.3 -03469.5 -07.5934 26255.6
 01 08 2013  02 41  -21.0283 26025.3 -03469.5 -07.5934 26255.6
 01 08 2013  02 42  -21.0286 26025.3 -03469.5 -07.5935 26255.6
 01 08 2013  02 43  -21.0289 26025.4 -03469.6 -07.5936 26255.7
 01 08 2013  02 44  -21.0290 26025.3 -03469.6 -07.5936 26255.6
 01 08 2013  02 45  -21.0291 26025.2 -03469.5 -07.5935 26255.5
 01 08 2013  02 46  -21.0290 26025.4 -03469.6 -07.5936 26255.7
 01 08 2013  02 47  -21.0289 26025.4 -03469.6 -07.5936 26255.7
 01 08 2013  02 48  -21.0289 26025.4 -03469.6 -07.5936 26255.6
 01 08 2013  02 49  -21.0290 26025.4 -03469.6 -07.5936 26255.6
 01 08 2013  02 50  -21.0293 26025.4 -03469.6 -07.5937 26255.6
 01 08 2013  02 51  -21.0296 26025.4 -03469.7 -07.5938 26255.7
 01 08 2013  02 52  -21.0299 26025.4 -03469.6 -07.5937 26255.7
 01 08 2013  02 53  -21.0300 26025.3 -03469.6 -07.5937 26255.5
 01 08 2013  02 54  -21.0300 26025.1 -03469.5 -07.5935 26255.4
 01 08 2013  02 55  -21.0300 26025.0 -03469.4 -07.5934 26255.3
 01 08 2013  02 56  -21.0301 26024.8 -03469.4 -07.5933 26255.1
 01 08 2013  02 57  -21.0301 26024.8 -03469.3 -07.5932 26255.0
 01 08 2013  02 58  -21.0303 26024.7 -03469.4 -07.5933 26255.0
 01 08 2013  02 59  -21.0304 26024.8 -03469.4 -07.5934 26255.0
 01 08 2013  03 00  -21.0302 26024.8 -03469.4 -07.5933 26255.0
 01 08 2013  03 01  -21.0302 26024.7 -03469.4 -07.5934 26255.0
 01 08 2013  03 02  -21.0300 26024.9 -03469.4 -07.5935 26255.1
 01 08 2013  03 03  -21.0298 26024.9 -03469.5 -07.5936 26255.2
 01 08 2013  03 04  -21.0298 26025.0 -03469.6 -07.5937 26255.3
 01 08 2013  03 05  -21.0296 26025.2 -03469.6 -07.5938 26255.4
 01 08 2013  03 06  -21.0295 26025.3 -03469.7 -07.5939 26255.5
 01 08 2013  03 07  -21.0294 26025.3 -03469.8 -07.5940 26255.6
 01 08 2013  03 08  -21.0292 26025.4 -03469.8 -07.5941 26255.7
 01 08 2013  03 09  -21.0291 26025.7 -03469.9 -07.5942 26256.0
 01 08 2013  03 10  -21.0288 26026.0 -03470.1 -07.5946 26256.4
 01 08 2013  03 11  -21.0288 26025.8 -03470.0 -07.5945 26256.2
 01 08 2013  03 12  -21.0286 26026.1 -03470.1 -07.5945 26256.4
 01 08 2013  03 13  -21.0287 26026.2 -03470.2 -07.5947 26256.5
 01 08 2013  03 14  -21.0285 26026.4 -03470.3 -07.5948 26256.7
 01 08 2013  03 15  -21.0284 26027.1 -03470.5 -07.5952 26257.4
 01 08 2013  03 16  -21.0284 26027.3 -03470.7 -07.5955 26257.6
 01 08 2013  03 17  -21.0282 26027.3 -03470.7 -07.5954 26257.7
 01 08 2013  03 18  -21.0282 26027.3 -03470.6 -07.5953 26257.7
 01 08 2013  03 19  -21.0281 26027.9 -03470.8 -07.5956 26258.3
 01 08 2013  03 20  -21.0283 26027.6 -03470.7 -07.5954 26258.0
 01 08 2013  03 21  -21.0283 26027.6 -03470.7 -07.5953 26258.0
 01 08 2013  03 22  -21.0285 26027.7 -03470.6 -07.5952 26258.0
 01 08 2013  03 23  -21.0285 26027.9 -03470.7 -07.5953 26258.3
 01 08 2013  03 24  -21.0286 26028.3 -03470.9 -07.5955 26258.7
 01 08 2013  03 25  -21.0286 26028.6 -03471.0 -07.5957 26259.0
 01 08 2013  03 26  -21.0285 26028.7 -03471.0 -07.5957 26259.1
 01 08 2013  03 27  -21.0284 26029.1 -03471.1 -07.5958 26259.5
 01 08 2013  03 28  -21.0283 26029.0 -03471.1 -07.5958 26259.5
 01 08 2013  03 29  -21.0284 26028.9 -03470.9 -07.5955 26259.3
 01 08 2013  03 30  -21.0286 26029.2 -03471.0 -07.5956 26259.6
 01 08 2013  03 31  -21.0286 26029.3 -03471.0 -07.5955 26259.7
 01 08 2013  03 32  -21.0288 26029.1 -03470.9 -07.5954 26259.5
 01 08 2013  03 33  -21.0287 26029.2 -03470.9 -07.5953 26259.6
 01 08 2013  03 34  -21.0289 26029.0 -03470.8 -07.5951 26259.4
 01 08 2013  03 35  -21.0286 26029.1 -03470.7 -07.5950 26259.4
 01 08 2013  03 36  -21.0285 26028.9 -03470.6 -07.5949 26259.3
 01 08 2013  03 37  -21.0282 26028.9 -03470.6 -07.5947 26259.3
 01 08 2013  03 38  -21.0281 26028.7 -03470.5 -07.5947 26259.1
 01 08 2013  03 39  -21.0278 26028.6 -03470.4 -07.5945 26259.0
 01 08 2013  03 40  -21.0276 26028.6 -03470.4 -07.5945 26259.0
 01 08 2013  03 41  -21.0276 26028.8 -03470.5 -07.5946 26259.1
 01 08 2013  03 42  -21.0274 26029.1 -03470.7 -07.5950 26259.5
 01 08 2013  03 43  -21.0273 26029.6 -03471.0 -07.5955 26260.0
 01 08 2013  03 44  -21.0270 26030.3 -03471.3 -07.5959 26260.7
 01 08 2013  03 45  -21.0270 26030.6 -03471.5 -07.5962 26261.1
 01 08 2013  03 46  -21.0269 26031.4 -03471.8 -07.5968 26261.9
 01 08 2013  03 47  -21.0269 26032.0 -03472.1 -07.5971 26262.6
 01 08 2013  03 48  -21.0269 26032.4 -03472.3 -07.5974 26263.0
 01 08 2013  03 49  -21.0267 26032.9 -03472.4 -07.5975 26263.5
 01 08 2013  03 50  -21.0271 26033.3 -03472.6 -07.5978 26263.9
 01 08 2013  03 51  -21.0269 26033.5 -03472.6 -07.5978 26264.1
 01 08 2013  03 52  -21.0265 26033.8 -03472.6 -07.5977 26264.4
 01 08 2013  03 53  -21.0262 26033.9 -03472.5 -07.5976 26264.5
 01 08 2013  03 54  -21.0262 26033.8 -03472.4 -07.5974 26264.4
 01 08 2013  03 55  -21.0259 26034.0 -03472.4 -07.5973 26264.6
 01 08 2013  03 56  -21.0260 26034.0 -03472.4 -07.5972 26264.5
 01 08 2013  03 57  -21.0260 26034.2 -03472.4 -07.5971 26264.7
 01 08 2013  03 58  -21.0262 26034.2 -03472.3 -07.5971 26264.7
 01 08 2013  03 59  -21.0263 26034.0 -03472.3 -07.5969 26264.6
 01 08 2013  04 00  -21.0264 26034.0 -03472.1 -07.5967 26264.5
 01 08 2013  04 01  -21.0265 26033.9 -03472.1 -07.5965 26264.4
 01 08 2013  04 02  -21.0266 26033.8 -03472.0 -07.5964 26264.3
 01 08 2013  04 03  -21.0271 26033.8 -03472.0 -07.5963 26264.3
 01 08 2013  04 04  -21.0274 26033.8 -03471.9 -07.5962 26264.3
 01 08 2013  04 05  -21.0280 26033.8 -03471.9 -07.5961 26264.2
 01 08 2013  04 06  -21.0286 26033.7 -03471.8 -07.5960 26264.2
 01 08 2013  04 07  -21.0288 26033.7 -03471.7 -07.5959 26264.2
 01 08 2013  04 08  -21.0289 26033.4 -03471.6 -07.5956 26263.9
 01 08 2013  04 09  -21.0289 26033.3 -03471.5 -07.5954 26263.8
 01 08 2013  04 10  -21.0289 26033.2 -03471.4 -07.5952 26263.6
 01 08 2013  04 11  -21.0291 26033.2 -03471.4 -07.5952 26263.6
 01 08 2013  04 12  -21.0292 26033.2 -03471.4 -07.5952 26263.7
 01 08 2013  04 13  -21.0290 26033.3 -03471.4 -07.5952 26263.7
 01 08 2013  04 14  -21.0291 26033.4 -03471.4 -07.5953 26263.8
 01 08 2013  04 15  -21.0294 26033.2 -03471.3 -07.5951 26263.6
 01 08 2013  04 16  -21.0293 26033.1 -03471.3 -07.5951 26263.5
 01 08 2013  04 17  -21.0292 26033.0 -03471.2 -07.5949 26263.4
 01 08 2013  04 18  -21.0295 26033.0 -03471.2 -07.5948 26263.4
 01 08 2013  04 19  -21.0297 26033.1 -03471.2 -07.5949 26263.5
 01 08 2013  04 20  -21.0299 26033.0 -03471.2 -07.5949 26263.4
 01 08 2013  04 21  -21.0302 26032.9 -03471.1 -07.5948 26263.3
 01 08 2013  04 22  -21.0304 26032.9 -03471.1 -07.5947 26263.2
 01 08 2013  04 23  -21.0306 26032.8 -03471.1 -07.5947 26263.2
 01 08 2013  04 24  -21.0306 26032.7 -03471.0 -07.5945 26263.1
 01 08 2013  04 25  -21.0304 26032.7 -03470.9 -07.5944 26263.1
 01 08 2013  04 26  -21.0303 26032.6 -03470.9 -07.5944 26263.0
 01 08 2013  04 27  -21.0299 26032.6 -03470.9 -07.5943 26262.9
 01 08 2013  04 28  -21.0295 26032.6 -03470.8 -07.5943 26263.0
 01 08 2013  04 29  -21.0289 26032.6 -03470.8 -07.5943 26263.0
 01 08 2013  04 30  -21.0286 26032.6 -03470.8 -07.5943 26263.0
 01 08 2013  04 31  -21.0284 26032.6 -03470.9 -07.5943 26263.0
 01 08 2013  04 32  -21.0281 26032.6 -03470.9 -07.5944 26262.9
 01 08 2013  04 33  -21.0279 26032.6 -03470.9 -07.5945 26262.9
 01 08 2013  04 34  -21.0278 26032.6 -03471.0 -07.5945 26262.9
 01 08 2013  04 35  -21.0277 26032.6 -03471.0 -07.5946 26263.0
 01 08 2013  04 36  -21.0275 26032.6 -03471.0 -07.5947 26263.0
 01 08 2013  04 37  -21.0273 26032.6 -03471.0 -07.5946 26263.0
 01 08 2013  04 38  -21.0271 26032.5 -03471.0 -07.5946 26262.9
 01 08 2013  04 39  -21.0270 26032.5 -03471.0 -07.5946 26262.9
 01 08 2013  04 40  -21.0271 26032.4 -03470.9 -07.5945 26262.7
 01 08 2013  04 41  -21.0272 26032.3 -03471.0 -07.5946 26262.7
 01 08 2013  04 42  -21.0273 26032.3 -03470.9 -07.5945 26262.6
 01 08 2013  04 43  -21.0275 26032.2 -03470.9 -07.5944 26262.6
 01 08 2013  04 44  -21.0276 26032.2 -03470.9 -07.5944 26262.5
 01 08 2013  04 45  -21.0276 26032.1 -03470.8 -07.5943 26262.4
 01 08 2013  04 46  -21.0273 26032.0 -03470.7 -07.5942 26262.3
 01 08 2013  04 47  -21.0270 26031.8 -03470.7 -07.5941 26262.2
 01 08 2013  04 48  -21.0265 26031.7 -03470.5 -07.5939 26262.0
 01 08 2013  04 49  -21.0260 26031.5 -03470.5 -07.5937 26261.8
 01 08 2013  04 50  -21.0256 26031.3 -03470.4 -07.5937 26261.7
 01 08 2013  04 51  -21.0255 26031.3 -03470.4 -07.5938 26261.6
 01 08 2013  04 52  -21.0254 26031.2 -03470.4 -07.5938 26261.5
 01 08 2013  04 53  -21.0255 26031.1 -03470.4 -07.5938 26261.4
 01 08 2013  04 54  -21.0255 26031.1 -03470.5 -07.5939 26261.4
 01 08 2013  04 55  -21.0255 26031.0 -03470.4 -07.5939 26261.3
 01 08 2013  04 56  -21.0256 26030.9 -03470.4 -07.5939 26261.2
 01 08 2013  04 57  -21.0259 26030.9 -03470.5 -07.5939 26261.2
 01 08 2013  04 58  -21.0260 26030.9 -03470.5 -07.5939 26261.2
 01 08 2013  04 59  -21.0262 26030.9 -03470.5 -07.5940 26261.2
 01 08 2013  05 00  -21.0264 26030.9 -03470.5 -07.5940 26261.2
 01 08 2013  05 01  -21.0269 26031.0 -03470.6 -07.5942 26261.3
 01 08 2013  05 02  -21.0273 26031.0 -03470.6 -07.5942 26261.3
 01 08 2013  05 03  -21.0276 26031.0 -03470.6 -07.5941 26261.3
 01 08 2013  05 04  -21.0281 26031.0 -03470.6 -07.5941 26261.3
 01 08 2013  05 05  -21.0285 26031.0 -03470.6 -07.5942 26261.3
 01 08 2013  05 06  -21.0290 26030.9 -03470.5 -07.5941 26261.2
 01 08 2013  05 07  -21.0294 26030.8 -03470.5 -07.5941 26261.2
 01 08 2013  05 08  -21.0298 26030.8 -03470.5 -07.5941 26261.1
 01 08 2013  05 09  -21.0302 26030.7 -03470.5 -07.5940 26261.1
 01 08 2013  05 10  -21.0305 26030.7 -03470.4 -07.5938 26261.0
 01 08 2013  05 11  -21.0307 26030.7 -03470.4 -07.5938 26261.0
 01 08 2013  05 12  -21.0310 26030.7 -03470.3 -07.5937 26261.0
 01 08 2013  05 13  -21.0313 26030.7 -03470.3 -07.5937 26261.0
 01 08 2013  05 14  -21.0315 26030.7 -03470.3 -07.5937 26261.0
