SAO LUIS EMBRACE-03 <284> 1 Min. Reported data

 DD MM YYYY  HH MM   D(Deg)  H(nT)   Z(nT)   I(Deg)   F(nT)

 11 10 2013  00 00  -21.0218 26009.1 -03494.0 -07.6511 26242.7
 11 10 2013  00 01  -21.0218 26009.1 -03494.0 -07.6511 26242.7
 11 10 2013  00 02  -21.0218 26009.1 -03494.0 -07.6511 26242.7
 11 10 2013  00 03  -21.0216 26009.1 -03494.0 -07.6511 26242.8
 11 10 2013  00 04  -21.0216 26009.4 -03494.1 -07.6513 26243.0
 11 10 2013  00 05  -21.0215 26009.3 -03494.1 -07.6513 26242.9
 11 10 2013  00 06  -21.0216 26009.2 -03494.0 -07.6512 26242.8
 11 10 2013  00 07  -21.0216 26009.2 -03494.0 -07.6512 26242.9
 11 10 2013  00 08  -21.0217 26009.2 -03494.0 -07.6511 26242.8
 11 10 2013  00 09  -21.0217 26009.1 -03493.9 -07.6510 26242.7
 11 10 2013  00 10  -21.0216 26009.1 -03493.9 -07.6510 26242.7
 11 10 2013  00 11  -21.0217 26009.0 -03493.9 -07.6509 26242.7
 11 10 2013  00 12  -21.0218 26009.1 -03493.9 -07.6509 26242.7
 11 10 2013  00 13  -21.0220 26009.1 -03493.9 -07.6509 26242.7
 11 10 2013  00 14  -21.0222 26008.9 -03493.8 -07.6508 26242.5
 11 10 2013  00 15  -21.0223 26008.8 -03493.8 -07.6507 26242.4
 11 10 2013  00 16  -21.0224 26008.8 -03493.7 -07.6507 26242.4
 11 10 2013  00 17  -21.0226 26008.6 -03493.7 -07.6506 26242.2
 11 10 2013  00 18  -21.0228 26008.5 -03493.6 -07.6506 26242.1
 11 10 2013  00 19  -21.0229 26008.5 -03493.6 -07.6505 26242.1
 11 10 2013  00 20  -21.0230 26008.4 -03493.6 -07.6504 26242.0
 11 10 2013  00 21  -21.0230 26008.2 -03493.5 -07.6504 26241.8
 11 10 2013  00 22  -21.0230 26008.1 -03493.5 -07.6503 26241.7
 11 10 2013  00 23  -21.0229 26008.1 -03493.5 -07.6503 26241.7
 11 10 2013  00 24  -21.0229 26008.1 -03493.5 -07.6504 26241.7
 11 10 2013  00 25  -21.0230 26008.2 -03493.6 -07.6505 26241.8
 11 10 2013  00 26  -21.0232 26008.2 -03493.6 -07.6505 26241.8
 11 10 2013  00 27  -21.0232 26008.3 -03493.7 -07.6506 26241.9
 11 10 2013  00 28  -21.0234 26008.4 -03493.7 -07.6507 26242.0
 11 10 2013  00 29  -21.0235 26008.4 -03493.8 -07.6508 26242.0
 11 10 2013  00 30  -21.0236 26008.5 -03493.7 -07.6508 26242.1
 11 10 2013  00 31  -21.0236 26008.5 -03493.8 -07.6509 26242.2
 11 10 2013  00 32  -21.0235 26008.4 -03493.7 -07.6508 26242.0
 11 10 2013  00 33  -21.0232 26008.2 -03493.6 -07.6505 26241.8
 11 10 2013  00 34  -21.0230 26008.0 -03493.5 -07.6503 26241.5
 11 10 2013  00 35  -21.0228 26007.8 -03493.4 -07.6502 26241.4
 11 10 2013  00 36  -21.0227 26007.6 -03493.3 -07.6501 26241.2
 11 10 2013  00 37  -21.0225 26007.5 -03493.3 -07.6501 26241.0
 11 10 2013  00 38  -21.0222 26007.3 -03493.2 -07.6500 26240.9
 11 10 2013  00 39  -21.0220 26007.1 -03493.2 -07.6500 26240.6
 11 10 2013  00 40  -21.0219 26006.9 -03493.1 -07.6499 26240.4
 11 10 2013  00 41  -21.0216 26006.8 -03493.1 -07.6499 26240.3
 11 10 2013  00 42  -21.0215 26006.7 -03493.2 -07.6500 26240.2
 11 10 2013  00 43  -21.0214 26006.7 -03493.2 -07.6501 26240.3
 11 10 2013  00 44  -21.0214 26006.7 -03493.3 -07.6503 26240.3
 11 10 2013  00 45  -21.0214 26006.8 -03493.4 -07.6505 26240.3
 11 10 2013  00 46  -21.0213 26006.8 -03493.5 -07.6507 26240.4
 11 10 2013  00 47  -21.0211 26006.8 -03493.5 -07.6508 26240.4
 11 10 2013  00 48  -21.0210 26006.9 -03493.6 -07.6510 26240.5
 11 10 2013  00 49  -21.0210 26006.9 -03493.7 -07.6511 26240.5
 11 10 2013  00 50  -21.0209 26007.0 -03493.7 -07.6512 26240.6
 11 10 2013  00 51  -21.0209 26006.9 -03493.8 -07.6513 26240.6
 11 10 2013  00 52  -21.0208 26006.9 -03493.7 -07.6513 26240.5
 11 10 2013  00 53  -21.0206 26006.8 -03493.7 -07.6513 26240.4
 11 10 2013  00 54  -21.0204 26006.7 -03493.7 -07.6512 26240.3
 11 10 2013  00 55  -21.0203 26006.7 -03493.8 -07.6513 26240.4
 11 10 2013  00 56  -21.0202 26006.8 -03493.9 -07.6515 26240.4
 11 10 2013  00 57  -21.0202 26006.5 -03493.8 -07.6515 26240.1
 11 10 2013  00 58  -21.0202 26006.8 -03494.0 -07.6517 26240.5
 11 10 2013  00 59  -21.0202 26007.3 -03494.2 -07.6522 26241.0
 11 10 2013  01 00  -21.0204 26007.2 -03494.2 -07.6522 26240.8
 11 10 2013  01 01  -21.0204 26007.2 -03494.2 -07.6521 26240.8
 11 10 2013  01 02  -21.0202 26007.6 -03494.4 -07.6524 26241.3
 11 10 2013  01 03  -21.0202 26007.7 -03494.5 -07.6526 26241.4
 11 10 2013  01 04  -21.0202 26007.6 -03494.4 -07.6525 26241.3
 11 10 2013  01 05  -21.0202 26007.4 -03494.3 -07.6524 26241.1
 11 10 2013  01 06  -21.0199 26007.8 -03494.5 -07.6525 26241.5
 11 10 2013  01 07  -21.0197 26008.0 -03494.6 -07.6527 26241.7
 11 10 2013  01 08  -21.0198 26007.6 -03494.5 -07.6526 26241.3
 11 10 2013  01 09  -21.0197 26007.8 -03494.5 -07.6526 26241.5
 11 10 2013  01 10  -21.0192 26008.1 -03494.6 -07.6527 26241.9
 11 10 2013  01 11  -21.0192 26008.1 -03494.6 -07.6528 26241.8
 11 10 2013  01 12  -21.0192 26007.8 -03494.5 -07.6527 26241.5
 11 10 2013  01 13  -21.0189 26008.3 -03494.7 -07.6529 26242.0
 11 10 2013  01 14  -21.0189 26008.4 -03494.8 -07.6530 26242.1
 11 10 2013  01 15  -21.0188 26008.2 -03494.7 -07.6529 26242.0
 11 10 2013  01 16  -21.0185 26008.2 -03494.7 -07.6529 26241.9
 11 10 2013  01 17  -21.0184 26008.4 -03494.7 -07.6530 26242.1
 11 10 2013  01 18  -21.0184 26008.4 -03494.7 -07.6530 26242.1
 11 10 2013  01 19  -21.0182 26008.3 -03494.7 -07.6529 26242.0
 11 10 2013  01 20  -21.0182 26008.1 -03494.6 -07.6527 26241.8
 11 10 2013  01 21  -21.0180 26008.2 -03494.6 -07.6528 26241.9
 11 10 2013  01 22  -21.0180 26008.2 -03494.6 -07.6528 26241.9
 11 10 2013  01 23  -21.0180 26008.0 -03494.6 -07.6527 26241.7
 11 10 2013  01 24  -21.0179 26008.1 -03494.6 -07.6527 26241.8
 11 10 2013  01 25  -21.0178 26008.1 -03494.6 -07.6528 26241.8
 11 10 2013  01 26  -21.0179 26007.8 -03494.5 -07.6526 26241.5
 11 10 2013  01 27  -21.0179 26007.7 -03494.4 -07.6525 26241.4
 11 10 2013  01 28  -21.0180 26007.6 -03494.3 -07.6523 26241.3
 11 10 2013  01 29  -21.0181 26007.6 -03494.4 -07.6524 26241.3
 11 10 2013  01 30  -21.0185 26007.5 -03494.3 -07.6523 26241.1
 11 10 2013  01 31  -21.0187 26007.5 -03494.3 -07.6523 26241.2
 11 10 2013  01 32  -21.0188 26007.5 -03494.4 -07.6524 26241.2
 11 10 2013  01 33  -21.0191 26007.4 -03494.3 -07.6523 26241.1
 11 10 2013  01 34  -21.0192 26007.5 -03494.3 -07.6524 26241.1
 11 10 2013  01 35  -21.0194 26007.4 -03494.3 -07.6523 26241.1
 11 10 2013  01 36  -21.0197 26007.3 -03494.3 -07.6522 26241.0
 11 10 2013  01 37  -21.0197 26007.3 -03494.2 -07.6522 26241.0
 11 10 2013  01 38  -21.0199 26007.3 -03494.2 -07.6522 26240.9
 11 10 2013  01 39  -21.0201 26007.2 -03494.2 -07.6521 26240.8
 11 10 2013  01 40  -21.0201 26007.2 -03494.2 -07.6520 26240.9
 11 10 2013  01 41  -21.0203 26007.1 -03494.1 -07.6520 26240.7
 11 10 2013  01 42  -21.0205 26007.0 -03494.0 -07.6519 26240.6
 11 10 2013  01 43  -21.0205 26007.1 -03494.1 -07.6520 26240.7
 11 10 2013  01 44  -21.0208 26006.7 -03494.0 -07.6518 26240.4
 11 10 2013  01 45  -21.0208 26006.8 -03494.0 -07.6518 26240.4
 11 10 2013  01 46  -21.0210 26006.6 -03493.9 -07.6517 26240.2
 11 10 2013  01 47  -21.0213 26006.4 -03493.8 -07.6515 26240.1
 11 10 2013  01 48  -21.0212 26006.7 -03493.9 -07.6516 26240.3
 11 10 2013  01 49  -21.0214 26006.6 -03493.9 -07.6516 26240.2
 11 10 2013  01 50  -21.0216 26006.7 -03493.9 -07.6517 26240.3
 11 10 2013  01 51  -21.0217 26006.9 -03494.0 -07.6519 26240.5
 11 10 2013  01 52  -21.0219 26006.9 -03494.1 -07.6519 26240.5
 11 10 2013  01 53  -21.0217 26007.2 -03494.2 -07.6521 26240.9
 11 10 2013  01 54  -21.0218 26007.2 -03494.2 -07.6522 26240.9
 11 10 2013  01 55  -21.0217 26007.3 -03494.2 -07.6522 26241.0
 11 10 2013  01 56  -21.0216 26007.5 -03494.3 -07.6523 26241.2
 11 10 2013  01 57  -21.0215 26007.5 -03494.3 -07.6524 26241.2
 11 10 2013  01 58  -21.0212 26007.6 -03494.4 -07.6524 26241.3
 11 10 2013  01 59  -21.0212 26007.7 -03494.4 -07.6524 26241.4
 11 10 2013  02 00  -21.0212 26007.9 -03494.5 -07.6525 26241.6
 11 10 2013  02 01  -21.0213 26008.0 -03494.6 -07.6527 26241.7
 11 10 2013  02 02  -21.0212 26008.0 -03494.6 -07.6527 26241.7
 11 10 2013  02 03  -21.0210 26008.3 -03494.7 -07.6528 26242.0
 11 10 2013  02 04  -21.0210 26008.3 -03494.7 -07.6529 26242.0
 11 10 2013  02 05  -21.0209 26008.3 -03494.7 -07.6529 26242.1
 11 10 2013  02 06  -21.0209 26008.4 -03494.7 -07.6529 26242.1
 11 10 2013  02 07  -21.0208 26008.3 -03494.7 -07.6528 26242.0
 11 10 2013  02 08  -21.0206 26008.4 -03494.6 -07.6528 26242.1
 11 10 2013  02 09  -21.0207 26008.4 -03494.7 -07.6528 26242.2
 11 10 2013  02 10  -21.0209 26008.4 -03494.7 -07.6528 26242.1
 11 10 2013  02 11  -21.0212 26008.2 -03494.6 -07.6526 26241.9
 11 10 2013  02 12  -21.0213 26008.2 -03494.5 -07.6526 26241.9
 11 10 2013  02 13  -21.0215 26008.3 -03494.5 -07.6526 26242.0
 11 10 2013  02 14  -21.0219 26008.2 -03494.6 -07.6526 26241.9
 11 10 2013  02 15  -21.0222 26008.3 -03494.6 -07.6526 26242.0
 11 10 2013  02 16  -21.0225 26008.3 -03494.6 -07.6526 26242.0
 11 10 2013  02 17  -21.0226 26008.5 -03494.6 -07.6527 26242.2
 11 10 2013  02 18  -21.0227 26008.3 -03494.6 -07.6527 26242.0
 11 10 2013  02 19  -21.0226 26008.3 -03494.6 -07.6526 26242.0
 11 10 2013  02 20  -21.0224 26008.2 -03494.5 -07.6525 26241.9
 11 10 2013  02 21  -21.0223 26008.1 -03494.4 -07.6524 26241.8
 11 10 2013  02 22  -21.0222 26008.2 -03494.5 -07.6526 26241.9
 11 10 2013  02 23  -21.0224 26008.1 -03494.5 -07.6526 26241.8
 11 10 2013  02 24  -21.0226 26007.9 -03494.5 -07.6526 26241.7
 11 10 2013  02 25  -21.0227 26007.9 -03494.5 -07.6525 26241.6
 11 10 2013  02 26  -21.0229 26007.8 -03494.4 -07.6525 26241.5
 11 10 2013  02 27  -21.0231 26007.6 -03494.3 -07.6523 26241.3
 11 10 2013  02 28  -21.0230 26007.6 -03494.3 -07.6523 26241.3
 11 10 2013  02 29  -21.0231 26007.3 -03494.2 -07.6521 26241.0
 11 10 2013  02 30  -21.0233 26007.2 -03494.1 -07.6520 26240.9
 11 10 2013  02 31  -21.0236 26007.3 -03494.2 -07.6521 26240.9
 11 10 2013  02 32  -21.0239 26007.1 -03494.2 -07.6521 26240.8
 11 10 2013  02 33  -21.0242 26006.8 -03494.0 -07.6518 26240.5
 11 10 2013  02 34  -21.0244 26006.7 -03493.9 -07.6517 26240.4
 11 10 2013  02 35  -21.0246 26006.7 -03493.9 -07.6517 26240.3
 11 10 2013  02 36  -21.0247 26006.7 -03494.0 -07.6519 26240.4
 11 10 2013  02 37  -21.0248 26006.6 -03493.9 -07.6518 26240.2
 11 10 2013  02 38  -21.0249 26006.7 -03494.0 -07.6519 26240.4
 11 10 2013  02 39  -21.0250 26007.0 -03494.2 -07.6522 26240.7
 11 10 2013  02 40  -21.0253 26007.1 -03494.3 -07.6525 26240.8
 11 10 2013  02 41  -21.0254 26007.2 -03494.4 -07.6526 26240.9
 11 10 2013  02 42  -21.0254 26007.3 -03494.5 -07.6527 26241.1
 11 10 2013  02 43  -21.0257 26007.2 -03494.5 -07.6527 26241.0
 11 10 2013  02 44  -21.0258 26007.3 -03494.5 -07.6527 26241.1
 11 10 2013  02 45  -21.0261 26007.2 -03494.5 -07.6527 26241.0
 11 10 2013  02 46  -21.0263 26007.3 -03494.5 -07.6527 26241.0
 11 10 2013  02 47  -21.0266 26007.3 -03494.5 -07.6528 26241.1
 11 10 2013  02 48  -21.0267 26007.2 -03494.5 -07.6527 26241.0
 11 10 2013  02 49  -21.0267 26007.2 -03494.4 -07.6526 26240.9
 11 10 2013  02 50  -21.0267 26007.2 -03494.4 -07.6526 26240.9
 11 10 2013  02 51  -21.0268 26007.2 -03494.4 -07.6526 26240.9
 11 10 2013  02 52  -21.0270 26007.1 -03494.4 -07.6526 26240.8
 11 10 2013  02 53  -21.0272 26007.0 -03494.4 -07.6526 26240.7
 11 10 2013  02 54  -21.0273 26006.9 -03494.3 -07.6525 26240.6
 11 10 2013  02 55  -21.0273 26006.8 -03494.2 -07.6523 26240.5
 11 10 2013  02 56  -21.0274 26006.8 -03494.3 -07.6524 26240.5
 11 10 2013  02 57  -21.0278 26006.6 -03494.2 -07.6524 26240.3
 11 10 2013  02 58  -21.0279 26006.4 -03494.1 -07.6522 26240.1
 11 10 2013  02 59  -21.0280 26006.2 -03494.0 -07.6520 26239.9
 11 10 2013  03 00  -21.0279 26006.1 -03493.9 -07.6519 26239.7
 11 10 2013  03 01  -21.0281 26005.9 -03493.9 -07.6518 26239.6
 11 10 2013  03 02  -21.0281 26005.8 -03493.8 -07.6517 26239.5
 11 10 2013  03 03  -21.0283 26005.8 -03493.8 -07.6518 26239.4
 11 10 2013  03 04  -21.0286 26005.7 -03493.8 -07.6518 26239.3
 11 10 2013  03 05  -21.0288 26005.7 -03493.8 -07.6518 26239.3
 11 10 2013  03 06  -21.0288 26005.6 -03493.8 -07.6518 26239.2
 11 10 2013  03 07  -21.0289 26005.5 -03493.7 -07.6516 26239.1
 11 10 2013  03 08  -21.0289 26005.3 -03493.7 -07.6515 26238.9
 11 10 2013  03 09  -21.0287 26005.1 -03493.6 -07.6514 26238.7
 11 10 2013  03 10  -21.0286 26004.8 -03493.4 -07.6512 26238.4
 11 10 2013  03 11  -21.0286 26004.7 -03493.4 -07.6511 26238.3
 11 10 2013  03 12  -21.0286 26004.6 -03493.4 -07.6511 26238.2
 11 10 2013  03 13  -21.0285 26004.4 -03493.3 -07.6510 26238.0
 11 10 2013  03 14  -21.0285 26004.3 -03493.3 -07.6509 26237.9
 11 10 2013  03 15  -21.0286 26004.3 -03493.3 -07.6510 26237.9
 11 10 2013  03 16  -21.0288 26004.3 -03493.4 -07.6512 26237.9
 11 10 2013  03 17  -21.0287 26004.2 -03493.3 -07.6511 26237.8
 11 10 2013  03 18  -21.0283 26004.1 -03493.2 -07.6510 26237.6
 11 10 2013  03 19  -21.0282 26004.0 -03493.2 -07.6510 26237.6
 11 10 2013  03 20  -21.0283 26004.0 -03493.2 -07.6510 26237.6
 11 10 2013  03 21  -21.0283 26004.0 -03493.3 -07.6511 26237.6
 11 10 2013  03 22  -21.0283 26003.9 -03493.2 -07.6510 26237.5
 11 10 2013  03 23  -21.0282 26004.0 -03493.3 -07.6510 26237.6
 11 10 2013  03 24  -21.0281 26003.9 -03493.2 -07.6510 26237.5
 11 10 2013  03 25  -21.0281 26003.8 -03493.2 -07.6511 26237.4
 11 10 2013  03 26  -21.0282 26003.8 -03493.3 -07.6511 26237.3
 11 10 2013  03 27  -21.0283 26003.7 -03493.3 -07.6511 26237.3
 11 10 2013  03 28  -21.0282 26003.6 -03493.2 -07.6511 26237.2
 11 10 2013  03 29  -21.0281 26003.5 -03493.2 -07.6510 26237.1
 11 10 2013  03 30  -21.0278 26003.5 -03493.2 -07.6510 26237.0
 11 10 2013  03 31  -21.0276 26003.4 -03493.2 -07.6510 26236.9
 11 10 2013  03 32  -21.0275 26003.4 -03493.2 -07.6511 26236.9
 11 10 2013  03 33  -21.0274 26003.3 -03493.2 -07.6511 26236.9
 11 10 2013  03 34  -21.0272 26003.3 -03493.2 -07.6512 26236.9
 11 10 2013  03 35  -21.0271 26003.2 -03493.2 -07.6512 26236.8
 11 10 2013  03 36  -21.0270 26003.2 -03493.2 -07.6512 26236.7
 11 10 2013  03 37  -21.0270 26003.0 -03493.2 -07.6512 26236.6
 11 10 2013  03 38  -21.0267 26003.0 -03493.2 -07.6511 26236.6
 11 10 2013  03 39  -21.0264 26002.8 -03493.1 -07.6511 26236.4
 11 10 2013  03 40  -21.0261 26002.6 -03493.1 -07.6511 26236.2
 11 10 2013  03 41  -21.0258 26002.6 -03493.1 -07.6512 26236.1
 11 10 2013  03 42  -21.0256 26002.6 -03493.2 -07.6513 26236.2
 11 10 2013  03 43  -21.0256 26002.7 -03493.3 -07.6515 26236.3
 11 10 2013  03 44  -21.0257 26002.7 -03493.4 -07.6517 26236.3
 11 10 2013  03 45  -21.0257 26002.7 -03493.5 -07.6518 26236.4
 11 10 2013  03 46  -21.0258 26002.8 -03493.6 -07.6520 26236.4
 11 10 2013  03 47  -21.0260 26002.8 -03493.6 -07.6521 26236.4
 11 10 2013  03 48  -21.0259 26002.7 -03493.6 -07.6522 26236.3
 11 10 2013  03 49  -21.0258 26002.6 -03493.6 -07.6521 26236.3
 11 10 2013  03 50  -21.0256 26002.6 -03493.6 -07.6522 26236.2
 11 10 2013  03 51  -21.0251 26002.5 -03493.6 -07.6521 26236.1
 11 10 2013  03 52  -21.0249 26002.4 -03493.6 -07.6522 26236.0
 11 10 2013  03 53  -21.0247 26002.4 -03493.6 -07.6523 26236.0
 11 10 2013  03 54  -21.0247 26002.4 -03493.7 -07.6525 26236.1
 11 10 2013  03 55  -21.0245 26002.3 -03493.7 -07.6526 26235.9
 11 10 2013  03 56  -21.0243 26002.3 -03493.8 -07.6526 26235.9
 11 10 2013  03 57  -21.0243 26002.3 -03493.9 -07.6528 26236.0
 11 10 2013  03 58  -21.0245 26002.3 -03494.0 -07.6531 26236.0
 11 10 2013  03 59  -21.0244 26002.2 -03494.0 -07.6531 26235.9
 11 10 2013  04 00  -21.0242 26002.0 -03493.9 -07.6530 26235.7
 11 10 2013  04 01  -21.0238 26001.9 -03493.9 -07.6530 26235.6
 11 10 2013  04 02  -21.0235 26001.7 -03493.9 -07.6530 26235.4
 11 10 2013  04 03  -21.0231 26001.6 -03493.8 -07.6530 26235.3
 11 10 2013  04 04  -21.0225 26001.4 -03493.8 -07.6530 26235.1
 11 10 2013  04 05  -21.0224 26001.3 -03493.8 -07.6530 26235.0
 11 10 2013  04 06  -21.0225 26001.3 -03493.9 -07.6532 26235.0
 11 10 2013  04 07  -21.0229 26001.2 -03494.0 -07.6534 26235.0
 11 10 2013  04 08  -21.0232 26001.3 -03494.1 -07.6535 26235.0
 11 10 2013  04 09  -21.0233 26001.3 -03494.1 -07.6537 26235.0
 11 10 2013  04 10  -21.0233 26001.3 -03494.1 -07.6537 26235.0
 11 10 2013  04 11  -21.0235 26001.2 -03494.1 -07.6537 26234.9
 11 10 2013  04 12  -21.0234 26001.0 -03494.1 -07.6537 26234.7
 11 10 2013  04 13  -21.0235 26000.9 -03494.1 -07.6537 26234.7
 11 10 2013  04 14  -21.0237 26001.0 -03494.1 -07.6537 26234.7
 11 10 2013  04 15  -21.0239 26001.1 -03494.1 -07.6538 26234.8
 11 10 2013  04 16  -21.0241 26001.1 -03494.2 -07.6539 26234.8
 11 10 2013  04 17  -21.0243 26001.2 -03494.3 -07.6540 26235.0
 11 10 2013  04 18  -21.0242 26001.3 -03494.3 -07.6541 26235.1
 11 10 2013  04 19  -21.0241 26001.5 -03494.4 -07.6542 26235.3
 11 10 2013  04 20  -21.0241 26001.7 -03494.5 -07.6543 26235.4
 11 10 2013  04 21  -21.0244 26002.0 -03494.7 -07.6547 26235.8
 11 10 2013  04 22  -21.0246 26002.3 -03494.8 -07.6549 26236.1
 11 10 2013  04 23  -21.0250 26002.5 -03494.9 -07.6551 26236.4
 11 10 2013  04 24  -21.0252 26002.8 -03495.0 -07.6552 26236.6
 11 10 2013  04 25  -21.0254 26002.9 -03495.1 -07.6552 26236.8
 11 10 2013  04 26  -21.0255 26003.1 -03495.1 -07.6552 26236.9
 11 10 2013  04 27  -21.0256 26003.3 -03495.1 -07.6553 26237.2
 11 10 2013  04 28  -21.0260 26003.6 -03495.3 -07.6555 26237.5
 11 10 2013  04 29  -21.0265 26003.8 -03495.3 -07.6556 26237.7
 11 10 2013  04 30  -21.0272 26003.9 -03495.3 -07.6555 26237.7
 11 10 2013  04 31  -21.0280 26004.0 -03495.3 -07.6555 26237.9
 11 10 2013  04 32  -21.0288 26004.2 -03495.3 -07.6555 26238.0
 11 10 2013  04 33  -21.0293 26004.2 -03495.3 -07.6553 26238.1
 11 10 2013  04 34  -21.0296 26004.4 -03495.3 -07.6552 26238.3
 11 10 2013  04 35  -21.0298 26004.5 -03495.2 -07.6551 26238.4
 11 10 2013  04 36  -21.0299 26004.6 -03495.1 -07.6549 26238.4
 11 10 2013  04 37  -21.0297 26004.6 -03495.0 -07.6547 26238.4
 11 10 2013  04 38  -21.0296 26004.5 -03494.9 -07.6545 26238.3
 11 10 2013  04 39  -21.0293 26004.4 -03494.8 -07.6542 26238.2
 11 10 2013  04 40  -21.0292 26004.4 -03494.7 -07.6540 26238.1
 11 10 2013  04 41  -21.0292 26004.4 -03494.7 -07.6539 26238.2
 11 10 2013  04 42  -21.0291 26004.4 -03494.6 -07.6539 26238.1
 11 10 2013  04 43  -21.0288 26004.4 -03494.5 -07.6537 26238.1
 11 10 2013  04 44  -21.0286 26004.4 -03494.6 -07.6537 26238.2
 11 10 2013  04 45  -21.0283 26004.5 -03494.5 -07.6537 26238.2
 11 10 2013  04 46  -21.0277 26004.5 -03494.6 -07.6537 26238.3
 11 10 2013  04 47  -21.0272 26004.6 -03494.6 -07.6538 26238.4
 11 10 2013  04 48  -21.0270 26004.7 -03494.7 -07.6539 26238.5
 11 10 2013  04 49  -21.0270 26004.9 -03494.8 -07.6541 26238.7
 11 10 2013  04 50  -21.0270 26005.0 -03494.9 -07.6542 26238.8
 11 10 2013  04 51  -21.0269 26005.1 -03494.9 -07.6542 26238.9
 11 10 2013  04 52  -21.0268 26005.1 -03494.9 -07.6542 26238.9
 11 10 2013  04 53  -21.0267 26005.0 -03494.8 -07.6541 26238.8
 11 10 2013  04 54  -21.0266 26004.9 -03494.8 -07.6540 26238.7
 11 10 2013  04 55  -21.0264 26004.8 -03494.7 -07.6539 26238.6
 11 10 2013  04 56  -21.0261 26004.6 -03494.6 -07.6537 26238.4
 11 10 2013  04 57  -21.0258 26004.5 -03494.5 -07.6535 26238.2
 11 10 2013  04 58  -21.0257 26004.3 -03494.4 -07.6534 26238.1
 11 10 2013  04 59  -21.0257 26004.2 -03494.4 -07.6534 26238.0
 11 10 2013  05 00  -21.0257 26004.2 -03494.4 -07.6534 26237.9
 11 10 2013  05 01  -21.0257 26004.0 -03494.3 -07.6533 26237.8
 11 10 2013  05 02  -21.0258 26003.9 -03494.3 -07.6532 26237.6
 11 10 2013  05 03  -21.0258 26003.9 -03494.3 -07.6532 26237.6
 11 10 2013  05 04  -21.0260 26003.9 -03494.3 -07.6533 26237.6
 11 10 2013  05 05  -21.0261 26003.9 -03494.3 -07.6533 26237.7
 11 10 2013  05 06  -21.0263 26004.0 -03494.4 -07.6534 26237.8
 11 10 2013  05 07  -21.0267 26004.2 -03494.5 -07.6536 26237.9
 11 10 2013  05 08  -21.0269 26004.3 -03494.5 -07.6537 26238.1
 11 10 2013  05 09  -21.0270 26004.4 -03494.6 -07.6538 26238.2
 11 10 2013  05 10  -21.0269 26004.4 -03494.5 -07.6537 26238.1
 11 10 2013  05 11  -21.0267 26004.3 -03494.5 -07.6536 26238.0
 11 10 2013  05 12  -21.0265 26004.3 -03494.4 -07.6535 26238.0
 11 10 2013  05 13  -21.0263 26004.3 -03494.4 -07.6534 26238.0
 11 10 2013  05 14  -21.0263 26004.3 -03494.4 -07.6535 26238.0
