SAO LUIS EMBRACE-03 <101> 1 Min. Reported data

 DD MM YYYY  HH MM   D(Deg)  H(nT)   Z(nT)   I(Deg)   F(nT)

 11 04 2013  00 00  -21.0340 26040.0 -03427.5 -07.4984 26264.6
 11 04 2013  00 01  -21.0341 26040.1 -03427.6 -07.4986 26264.7
 11 04 2013  00 02  -21.0341 26040.2 -03427.7 -07.4987 26264.8
 11 04 2013  00 03  -21.0341 26040.1 -03427.6 -07.4986 26264.8
 11 04 2013  00 04  -21.0341 26040.1 -03427.6 -07.4985 26264.7
 11 04 2013  00 05  -21.0341 26040.0 -03427.5 -07.4984 26264.5
 11 04 2013  00 06  -21.0342 26039.8 -03427.4 -07.4983 26264.4
 11 04 2013  00 07  -21.0343 26039.7 -03427.3 -07.4982 26264.3
 11 04 2013  00 08  -21.0344 26039.6 -03427.3 -07.4981 26264.2
 11 04 2013  00 09  -21.0344 26039.6 -03427.3 -07.4981 26264.2
 11 04 2013  00 10  -21.0346 26039.6 -03427.4 -07.4982 26264.2
 11 04 2013  00 11  -21.0345 26039.7 -03427.4 -07.4983 26264.3
 11 04 2013  00 12  -21.0342 26039.9 -03427.5 -07.4985 26264.5
 11 04 2013  00 13  -21.0341 26040.0 -03427.5 -07.4985 26264.6
 11 04 2013  00 14  -21.0339 26040.1 -03427.6 -07.4986 26264.7
 11 04 2013  00 15  -21.0337 26040.3 -03427.6 -07.4986 26264.9
 11 04 2013  00 16  -21.0336 26040.3 -03427.7 -07.4987 26265.0
 11 04 2013  00 17  -21.0335 26040.3 -03427.7 -07.4987 26264.9
 11 04 2013  00 18  -21.0334 26040.3 -03427.7 -07.4987 26264.9
 11 04 2013  00 19  -21.0333 26040.4 -03427.7 -07.4988 26265.1
 11 04 2013  00 20  -21.0333 26040.7 -03427.9 -07.4990 26265.3
 11 04 2013  00 21  -21.0332 26040.9 -03428.0 -07.4992 26265.6
 11 04 2013  00 22  -21.0332 26041.1 -03428.0 -07.4993 26265.8
 11 04 2013  00 23  -21.0330 26041.1 -03428.1 -07.4993 26265.8
 11 04 2013  00 24  -21.0329 26041.1 -03428.0 -07.4992 26265.8
 11 04 2013  00 25  -21.0328 26041.1 -03428.0 -07.4991 26265.7
 11 04 2013  00 26  -21.0328 26041.0 -03427.9 -07.4990 26265.6
 11 04 2013  00 27  -21.0326 26040.9 -03427.9 -07.4989 26265.6
 11 04 2013  00 28  -21.0327 26040.8 -03427.8 -07.4988 26265.4
 11 04 2013  00 29  -21.0326 26040.7 -03427.7 -07.4986 26265.3
 11 04 2013  00 30  -21.0325 26040.7 -03427.7 -07.4986 26265.3
 11 04 2013  00 31  -21.0325 26040.7 -03427.7 -07.4986 26265.3
 11 04 2013  00 32  -21.0325 26040.8 -03427.8 -07.4987 26265.4
 11 04 2013  00 33  -21.0324 26040.8 -03427.8 -07.4988 26265.4
 11 04 2013  00 34  -21.0325 26040.7 -03427.8 -07.4988 26265.4
 11 04 2013  00 35  -21.0324 26040.7 -03427.8 -07.4987 26265.4
 11 04 2013  00 36  -21.0324 26040.7 -03427.7 -07.4987 26265.3
 11 04 2013  00 37  -21.0324 26040.6 -03427.7 -07.4986 26265.3
 11 04 2013  00 38  -21.0323 26040.5 -03427.6 -07.4985 26265.1
 11 04 2013  00 39  -21.0323 26040.4 -03427.6 -07.4984 26265.0
 11 04 2013  00 40  -21.0323 26040.3 -03427.5 -07.4984 26264.9
 11 04 2013  00 41  -21.0322 26040.2 -03427.5 -07.4983 26264.8
 11 04 2013  00 42  -21.0321 26040.1 -03427.5 -07.4984 26264.7
 11 04 2013  00 43  -21.0321 26039.9 -03427.5 -07.4983 26264.5
 11 04 2013  00 44  -21.0320 26039.9 -03427.4 -07.4983 26264.5
 11 04 2013  00 45  -21.0320 26039.8 -03427.4 -07.4983 26264.4
 11 04 2013  00 46  -21.0319 26039.7 -03427.4 -07.4983 26264.3
 11 04 2013  00 47  -21.0318 26039.7 -03427.4 -07.4984 26264.3
 11 04 2013  00 48  -21.0316 26039.7 -03427.5 -07.4985 26264.3
 11 04 2013  00 49  -21.0315 26039.9 -03427.6 -07.4986 26264.5
 11 04 2013  00 50  -21.0314 26040.0 -03427.6 -07.4987 26264.6
 11 04 2013  00 51  -21.0312 26040.1 -03427.7 -07.4989 26264.7
 11 04 2013  00 52  -21.0311 26040.1 -03427.8 -07.4990 26264.8
 11 04 2013  00 53  -21.0310 26040.3 -03427.8 -07.4991 26264.9
 11 04 2013  00 54  -21.0309 26040.3 -03427.9 -07.4991 26265.0
 11 04 2013  00 55  -21.0309 26040.4 -03427.9 -07.4992 26265.1
 11 04 2013  00 56  -21.0308 26040.5 -03427.9 -07.4992 26265.1
 11 04 2013  00 57  -21.0307 26040.5 -03427.9 -07.4992 26265.2
 11 04 2013  00 58  -21.0308 26040.4 -03427.9 -07.4992 26265.0
 11 04 2013  00 59  -21.0308 26040.3 -03427.9 -07.4991 26264.9
 11 04 2013  01 00  -21.0308 26040.1 -03427.8 -07.4989 26264.8
 11 04 2013  01 01  -21.0308 26040.1 -03427.7 -07.4989 26264.7
 11 04 2013  01 02  -21.0307 26040.0 -03427.7 -07.4988 26264.6
 11 04 2013  01 03  -21.0307 26039.9 -03427.7 -07.4988 26264.6
 11 04 2013  01 04  -21.0306 26039.9 -03427.6 -07.4988 26264.5
 11 04 2013  01 05  -21.0305 26039.8 -03427.6 -07.4987 26264.5
 11 04 2013  01 06  -21.0305 26039.7 -03427.6 -07.4987 26264.4
 11 04 2013  01 07  -21.0305 26039.6 -03427.5 -07.4985 26264.2
 11 04 2013  01 08  -21.0305 26039.4 -03427.4 -07.4984 26264.0
 11 04 2013  01 09  -21.0305 26039.4 -03427.4 -07.4983 26263.9
 11 04 2013  01 10  -21.0304 26039.4 -03427.4 -07.4984 26264.0
 11 04 2013  01 11  -21.0302 26039.5 -03427.5 -07.4986 26264.1
 11 04 2013  01 12  -21.0303 26039.6 -03427.6 -07.4987 26264.2
 11 04 2013  01 13  -21.0302 26039.6 -03427.6 -07.4987 26264.2
 11 04 2013  01 14  -21.0302 26039.4 -03427.5 -07.4986 26264.0
 11 04 2013  01 15  -21.0302 26039.4 -03427.5 -07.4986 26264.0
 11 04 2013  01 16  -21.0300 26039.4 -03427.5 -07.4986 26264.0
 11 04 2013  01 17  -21.0300 26039.4 -03427.5 -07.4986 26264.1
 11 04 2013  01 18  -21.0299 26039.3 -03427.5 -07.4986 26263.9
 11 04 2013  01 19  -21.0299 26039.3 -03427.5 -07.4985 26263.9
 11 04 2013  01 20  -21.0298 26039.3 -03427.5 -07.4985 26263.9
 11 04 2013  01 21  -21.0298 26039.4 -03427.5 -07.4986 26264.0
 11 04 2013  01 22  -21.0297 26039.5 -03427.6 -07.4988 26264.2
 11 04 2013  01 23  -21.0296 26039.7 -03427.7 -07.4989 26264.3
 11 04 2013  01 24  -21.0294 26039.8 -03427.7 -07.4989 26264.4
 11 04 2013  01 25  -21.0292 26039.9 -03427.8 -07.4990 26264.6
 11 04 2013  01 26  -21.0292 26039.9 -03427.8 -07.4991 26264.6
 11 04 2013  01 27  -21.0292 26040.1 -03427.8 -07.4991 26264.7
 11 04 2013  01 28  -21.0291 26040.1 -03427.9 -07.4992 26264.8
 11 04 2013  01 29  -21.0290 26040.1 -03427.9 -07.4992 26264.8
 11 04 2013  01 30  -21.0289 26040.2 -03427.9 -07.4992 26264.9
 11 04 2013  01 31  -21.0288 26040.4 -03428.0 -07.4993 26265.0
 11 04 2013  01 32  -21.0287 26040.3 -03427.9 -07.4992 26265.0
 11 04 2013  01 33  -21.0287 26040.4 -03427.9 -07.4992 26265.0
 11 04 2013  01 34  -21.0287 26040.3 -03427.9 -07.4992 26264.9
 11 04 2013  01 35  -21.0288 26040.1 -03427.8 -07.4990 26264.8
 11 04 2013  01 36  -21.0289 26040.0 -03427.7 -07.4988 26264.6
 11 04 2013  01 37  -21.0290 26039.7 -03427.6 -07.4987 26264.4
 11 04 2013  01 38  -21.0290 26039.6 -03427.5 -07.4986 26264.2
 11 04 2013  01 39  -21.0290 26039.5 -03427.5 -07.4985 26264.1
 11 04 2013  01 40  -21.0292 26039.5 -03427.5 -07.4985 26264.1
 11 04 2013  01 41  -21.0293 26039.4 -03427.5 -07.4986 26264.0
 11 04 2013  01 42  -21.0295 26039.4 -03427.5 -07.4985 26264.0
 11 04 2013  01 43  -21.0296 26039.5 -03427.5 -07.4986 26264.1
 11 04 2013  01 44  -21.0297 26039.4 -03427.5 -07.4985 26264.0
 11 04 2013  01 45  -21.0298 26039.4 -03427.5 -07.4985 26264.1
 11 04 2013  01 46  -21.0298 26039.5 -03427.5 -07.4986 26264.1
 11 04 2013  01 47  -21.0297 26039.4 -03427.5 -07.4985 26264.0
 11 04 2013  01 48  -21.0297 26039.4 -03427.4 -07.4985 26264.0
 11 04 2013  01 49  -21.0297 26039.3 -03427.4 -07.4984 26263.9
 11 04 2013  01 50  -21.0298 26039.2 -03427.3 -07.4983 26263.8
 11 04 2013  01 51  -21.0298 26039.1 -03427.3 -07.4982 26263.7
 11 04 2013  01 52  -21.0298 26038.9 -03427.2 -07.4980 26263.5
 11 04 2013  01 53  -21.0298 26038.8 -03427.1 -07.4979 26263.4
 11 04 2013  01 54  -21.0297 26038.8 -03427.1 -07.4978 26263.3
 11 04 2013  01 55  -21.0296 26038.9 -03427.1 -07.4980 26263.4
 11 04 2013  01 56  -21.0295 26038.8 -03427.1 -07.4980 26263.4
 11 04 2013  01 57  -21.0295 26038.8 -03427.1 -07.4979 26263.3
 11 04 2013  01 58  -21.0293 26038.8 -03427.1 -07.4980 26263.3
 11 04 2013  01 59  -21.0292 26038.7 -03427.1 -07.4979 26263.2
 11 04 2013  02 00  -21.0290 26038.8 -03427.2 -07.4980 26263.4
 11 04 2013  02 01  -21.0289 26038.8 -03427.2 -07.4980 26263.4
 11 04 2013  02 02  -21.0286 26038.9 -03427.2 -07.4981 26263.5
 11 04 2013  02 03  -21.0285 26039.0 -03427.2 -07.4981 26263.6
 11 04 2013  02 04  -21.0284 26039.1 -03427.3 -07.4982 26263.7
 11 04 2013  02 05  -21.0282 26039.2 -03427.3 -07.4983 26263.7
 11 04 2013  02 06  -21.0281 26039.2 -03427.4 -07.4984 26263.8
 11 04 2013  02 07  -21.0281 26039.2 -03427.4 -07.4984 26263.8
 11 04 2013  02 08  -21.0280 26039.3 -03427.4 -07.4984 26263.9
 11 04 2013  02 09  -21.0279 26039.4 -03427.5 -07.4985 26264.0
 11 04 2013  02 10  -21.0279 26039.4 -03427.5 -07.4986 26264.0
 11 04 2013  02 11  -21.0280 26039.2 -03427.4 -07.4984 26263.8
 11 04 2013  02 12  -21.0280 26038.8 -03427.2 -07.4981 26263.4
 11 04 2013  02 13  -21.0282 26038.5 -03427.0 -07.4978 26263.0
 11 04 2013  02 14  -21.0282 26038.2 -03427.0 -07.4977 26262.8
 11 04 2013  02 15  -21.0281 26038.3 -03427.0 -07.4978 26262.8
 11 04 2013  02 16  -21.0281 26038.5 -03427.2 -07.4981 26263.1
 11 04 2013  02 17  -21.0281 26038.8 -03427.3 -07.4984 26263.4
 11 04 2013  02 18  -21.0281 26038.8 -03427.4 -07.4985 26263.4
 11 04 2013  02 19  -21.0283 26038.8 -03427.4 -07.4985 26263.4
 11 04 2013  02 20  -21.0283 26038.7 -03427.3 -07.4984 26263.3
 11 04 2013  02 21  -21.0283 26038.5 -03427.3 -07.4984 26263.1
 11 04 2013  02 22  -21.0282 26038.4 -03427.2 -07.4983 26263.0
 11 04 2013  02 23  -21.0282 26038.4 -03427.3 -07.4983 26263.0
 11 04 2013  02 24  -21.0282 26038.5 -03427.3 -07.4984 26263.1
 11 04 2013  02 25  -21.0282 26038.5 -03427.3 -07.4985 26263.1
 11 04 2013  02 26  -21.0283 26038.5 -03427.3 -07.4985 26263.0
 11 04 2013  02 27  -21.0284 26038.4 -03427.3 -07.4985 26263.0
 11 04 2013  02 28  -21.0285 26038.4 -03427.3 -07.4985 26262.9
 11 04 2013  02 29  -21.0286 26038.4 -03427.4 -07.4986 26263.0
 11 04 2013  02 30  -21.0289 26038.5 -03427.4 -07.4987 26263.1
 11 04 2013  02 31  -21.0291 26038.4 -03427.4 -07.4987 26263.0
 11 04 2013  02 32  -21.0292 26038.3 -03427.4 -07.4987 26262.9
 11 04 2013  02 33  -21.0292 26038.2 -03427.4 -07.4986 26262.8
 11 04 2013  02 34  -21.0292 26038.1 -03427.3 -07.4985 26262.7
 11 04 2013  02 35  -21.0291 26038.1 -03427.3 -07.4985 26262.7
 11 04 2013  02 36  -21.0291 26038.0 -03427.3 -07.4985 26262.6
 11 04 2013  02 37  -21.0290 26038.0 -03427.3 -07.4985 26262.6
 11 04 2013  02 38  -21.0290 26038.1 -03427.3 -07.4985 26262.7
 11 04 2013  02 39  -21.0289 26038.1 -03427.4 -07.4986 26262.7
 11 04 2013  02 40  -21.0288 26038.1 -03427.4 -07.4987 26262.7
 11 04 2013  02 41  -21.0287 26038.0 -03427.4 -07.4987 26262.6
 11 04 2013  02 42  -21.0285 26038.0 -03427.3 -07.4986 26262.6
 11 04 2013  02 43  -21.0284 26038.1 -03427.4 -07.4987 26262.7
 11 04 2013  02 44  -21.0283 26038.1 -03427.4 -07.4988 26262.7
 11 04 2013  02 45  -21.0282 26038.1 -03427.5 -07.4990 26262.7
 11 04 2013  02 46  -21.0281 26038.2 -03427.6 -07.4991 26262.8
 11 04 2013  02 47  -21.0281 26038.2 -03427.6 -07.4991 26262.8
 11 04 2013  02 48  -21.0281 26038.2 -03427.6 -07.4991 26262.8
 11 04 2013  02 49  -21.0281 26038.2 -03427.6 -07.4992 26262.8
 11 04 2013  02 50  -21.0280 26038.1 -03427.6 -07.4992 26262.8
 11 04 2013  02 51  -21.0280 26038.2 -03427.6 -07.4992 26262.9
 11 04 2013  02 52  -21.0277 26038.3 -03427.7 -07.4993 26262.9
 11 04 2013  02 53  -21.0274 26038.4 -03427.8 -07.4994 26263.0
 11 04 2013  02 54  -21.0273 26038.4 -03427.8 -07.4995 26263.1
 11 04 2013  02 55  -21.0272 26038.5 -03427.9 -07.4996 26263.1
 11 04 2013  02 56  -21.0272 26038.5 -03427.9 -07.4997 26263.2
 11 04 2013  02 57  -21.0273 26038.5 -03427.9 -07.4997 26263.1
 11 04 2013  02 58  -21.0273 26038.5 -03427.9 -07.4998 26263.1
 11 04 2013  02 59  -21.0273 26038.4 -03427.9 -07.4997 26263.1
 11 04 2013  03 00  -21.0272 26038.3 -03427.9 -07.4997 26263.0
 11 04 2013  03 01  -21.0271 26038.3 -03427.9 -07.4997 26263.0
 11 04 2013  03 02  -21.0270 26038.3 -03427.9 -07.4997 26263.0
 11 04 2013  03 03  -21.0269 26038.3 -03427.9 -07.4997 26262.9
 11 04 2013  03 04  -21.0268 26038.2 -03427.9 -07.4997 26262.9
 11 04 2013  03 05  -21.0268 26038.1 -03427.8 -07.4996 26262.8
 11 04 2013  03 06  -21.0268 26038.0 -03427.8 -07.4996 26262.7
 11 04 2013  03 07  -21.0268 26038.0 -03427.8 -07.4996 26262.6
 11 04 2013  03 08  -21.0267 26038.1 -03427.9 -07.4997 26262.8
 11 04 2013  03 09  -21.0266 26038.1 -03427.9 -07.4998 26262.8
 11 04 2013  03 10  -21.0265 26038.3 -03428.0 -07.4999 26263.0
 11 04 2013  03 11  -21.0264 26038.4 -03428.0 -07.5000 26263.1
 11 04 2013  03 12  -21.0262 26038.4 -03428.0 -07.5000 26263.1
 11 04 2013  03 13  -21.0260 26038.5 -03428.1 -07.5001 26263.2
 11 04 2013  03 14  -21.0258 26038.5 -03428.1 -07.5000 26263.2
 11 04 2013  03 15  -21.0257 26038.6 -03428.1 -07.5001 26263.3
 11 04 2013  03 16  -21.0258 26038.6 -03428.1 -07.5002 26263.3
 11 04 2013  03 17  -21.0258 26038.5 -03428.1 -07.5001 26263.2
 11 04 2013  03 18  -21.0259 26038.5 -03428.1 -07.5001 26263.2
 11 04 2013  03 19  -21.0260 26038.4 -03428.0 -07.5000 26263.1
 11 04 2013  03 20  -21.0259 26038.4 -03428.0 -07.5000 26263.1
 11 04 2013  03 21  -21.0259 26038.4 -03428.0 -07.5000 26263.1
 11 04 2013  03 22  -21.0259 26038.5 -03428.0 -07.4999 26263.1
 11 04 2013  03 23  -21.0258 26038.4 -03428.0 -07.4998 26263.1
 11 04 2013  03 24  -21.0256 26038.5 -03427.9 -07.4998 26263.1
 11 04 2013  03 25  -21.0256 26038.4 -03427.9 -07.4998 26263.1
 11 04 2013  03 26  -21.0256 26038.3 -03427.9 -07.4997 26263.0
 11 04 2013  03 27  -21.0255 26038.3 -03427.9 -07.4998 26263.0
 11 04 2013  03 28  -21.0253 26038.3 -03427.9 -07.4998 26263.0
 11 04 2013  03 29  -21.0251 26038.4 -03427.9 -07.4998 26263.0
 11 04 2013  03 30  -21.0251 26038.4 -03428.0 -07.4998 26263.1
 11 04 2013  03 31  -21.0250 26038.4 -03427.9 -07.4997 26263.1
 11 04 2013  03 32  -21.0248 26038.5 -03427.9 -07.4997 26263.1
 11 04 2013  03 33  -21.0248 26038.4 -03427.9 -07.4997 26263.1
 11 04 2013  03 34  -21.0250 26038.3 -03427.8 -07.4996 26263.0
 11 04 2013  03 35  -21.0250 26038.3 -03427.8 -07.4996 26263.0
 11 04 2013  03 36  -21.0250 26038.2 -03427.8 -07.4995 26262.8
 11 04 2013  03 37  -21.0250 26038.2 -03427.8 -07.4995 26262.9
 11 04 2013  03 38  -21.0251 26038.2 -03427.8 -07.4995 26262.9
 11 04 2013  03 39  -21.0251 26038.2 -03427.8 -07.4995 26262.9
 11 04 2013  03 40  -21.0251 26038.3 -03427.8 -07.4995 26262.9
 11 04 2013  03 41  -21.0251 26038.2 -03427.7 -07.4994 26262.9
 11 04 2013  03 42  -21.0252 26038.2 -03427.7 -07.4994 26262.9
 11 04 2013  03 43  -21.0252 26038.3 -03427.8 -07.4994 26263.0
 11 04 2013  03 44  -21.0252 26038.4 -03427.8 -07.4995 26263.0
 11 04 2013  03 45  -21.0253 26038.5 -03427.8 -07.4995 26263.1
 11 04 2013  03 46  -21.0253 26038.5 -03427.8 -07.4996 26263.1
 11 04 2013  03 47  -21.0252 26038.4 -03427.8 -07.4995 26263.1
 11 04 2013  03 48  -21.0252 26038.4 -03427.8 -07.4994 26263.0
 11 04 2013  03 49  -21.0252 26038.3 -03427.7 -07.4994 26263.0
 11 04 2013  03 50  -21.0252 26038.3 -03427.8 -07.4994 26263.0
 11 04 2013  03 51  -21.0253 26038.3 -03427.7 -07.4994 26263.0
 11 04 2013  03 52  -21.0253 26038.2 -03427.7 -07.4994 26262.9
 11 04 2013  03 53  -21.0254 26038.3 -03427.8 -07.4995 26262.9
 11 04 2013  03 54  -21.0254 26038.2 -03427.7 -07.4994 26262.8
 11 04 2013  03 55  -21.0254 26038.1 -03427.7 -07.4994 26262.7
 11 04 2013  03 56  -21.0255 26038.1 -03427.7 -07.4994 26262.7
 11 04 2013  03 57  -21.0255 26038.0 -03427.7 -07.4995 26262.7
 11 04 2013  03 58  -21.0256 26038.0 -03427.8 -07.4996 26262.7
 11 04 2013  03 59  -21.0255 26038.1 -03427.8 -07.4996 26262.7
 11 04 2013  04 00  -21.0255 26038.1 -03427.8 -07.4997 26262.8
 11 04 2013  04 01  -21.0255 26038.2 -03427.9 -07.4998 26262.8
 11 04 2013  04 02  -21.0256 26038.1 -03427.9 -07.4998 26262.8
 11 04 2013  04 03  -21.0258 26038.1 -03427.9 -07.4998 26262.8
 11 04 2013  04 04  -21.0259 26038.1 -03428.0 -07.4999 26262.8
 11 04 2013  04 05  -21.0260 26038.0 -03427.9 -07.4999 26262.7
 11 04 2013  04 06  -21.0261 26038.0 -03427.9 -07.4999 26262.6
 11 04 2013  04 07  -21.0263 26037.9 -03427.9 -07.4999 26262.6
 11 04 2013  04 08  -21.0266 26037.7 -03427.8 -07.4998 26262.4
 11 04 2013  04 09  -21.0269 26037.7 -03427.9 -07.4998 26262.3
 11 04 2013  04 10  -21.0270 26037.6 -03427.8 -07.4998 26262.2
 11 04 2013  04 11  -21.0272 26037.5 -03427.8 -07.4998 26262.1
 11 04 2013  04 12  -21.0272 26037.5 -03427.8 -07.4998 26262.1
 11 04 2013  04 13  -21.0273 26037.6 -03427.9 -07.4999 26262.2
 11 04 2013  04 14  -21.0273 26037.5 -03427.9 -07.4999 26262.2
 11 04 2013  04 15  -21.0274 26037.4 -03427.9 -07.4999 26262.1
 11 04 2013  04 16  -21.0277 26037.4 -03427.9 -07.5000 26262.1
 11 04 2013  04 17  -21.0279 26037.4 -03427.9 -07.5000 26262.1
 11 04 2013  04 18  -21.0282 26037.4 -03427.9 -07.5001 26262.1
 11 04 2013  04 19  -21.0285 26037.4 -03428.0 -07.5001 26262.1
 11 04 2013  04 20  -21.0287 26037.4 -03428.0 -07.5002 26262.1
 11 04 2013  04 21  -21.0289 26037.4 -03428.0 -07.5002 26262.1
 11 04 2013  04 22  -21.0290 26037.4 -03428.0 -07.5003 26262.1
 11 04 2013  04 23  -21.0293 26037.4 -03428.0 -07.5003 26262.1
 11 04 2013  04 24  -21.0295 26037.5 -03428.1 -07.5004 26262.2
 11 04 2013  04 25  -21.0297 26037.5 -03428.1 -07.5005 26262.2
 11 04 2013  04 26  -21.0298 26037.4 -03428.1 -07.5004 26262.1
 11 04 2013  04 27  -21.0299 26037.4 -03428.1 -07.5004 26262.1
 11 04 2013  04 28  -21.0301 26037.4 -03428.1 -07.5004 26262.1
 11 04 2013  04 29  -21.0302 26037.4 -03428.1 -07.5004 26262.1
 11 04 2013  04 30  -21.0303 26037.3 -03428.1 -07.5005 26262.0
 11 04 2013  04 31  -21.0305 26037.3 -03428.1 -07.5005 26262.0
 11 04 2013  04 32  -21.0305 26037.3 -03428.1 -07.5005 26262.0
 11 04 2013  04 33  -21.0305 26037.4 -03428.2 -07.5006 26262.1
 11 04 2013  04 34  -21.0305 26037.4 -03428.2 -07.5006 26262.1
 11 04 2013  04 35  -21.0306 26037.5 -03428.2 -07.5006 26262.2
 11 04 2013  04 36  -21.0305 26037.5 -03428.2 -07.5007 26262.2
 11 04 2013  04 37  -21.0305 26037.7 -03428.3 -07.5009 26262.4
 11 04 2013  04 38  -21.0305 26037.8 -03428.4 -07.5009 26262.5
 11 04 2013  04 39  -21.0306 26037.7 -03428.4 -07.5009 26262.5
 11 04 2013  04 40  -21.0306 26037.7 -03428.3 -07.5009 26262.4
 11 04 2013  04 41  -21.0307 26037.7 -03428.3 -07.5009 26262.4
 11 04 2013  04 42  -21.0308 26037.7 -03428.3 -07.5008 26262.4
 11 04 2013  04 43  -21.0308 26037.6 -03428.3 -07.5008 26262.4
 11 04 2013  04 44  -21.0308 26037.6 -03428.3 -07.5009 26262.4
 11 04 2013  04 45  -21.0309 26037.6 -03428.3 -07.5008 26262.3
 11 04 2013  04 46  -21.0308 26037.6 -03428.3 -07.5009 26262.3
 11 04 2013  04 47  -21.0308 26037.7 -03428.4 -07.5009 26262.4
 11 04 2013  04 48  -21.0307 26037.8 -03428.5 -07.5011 26262.6
 11 04 2013  04 49  -21.0305 26038.1 -03428.5 -07.5012 26262.8
 11 04 2013  04 50  -21.0303 26038.1 -03428.6 -07.5013 26262.9
 11 04 2013  04 51  -21.0301 26038.2 -03428.6 -07.5014 26263.0
 11 04 2013  04 52  -21.0300 26038.2 -03428.6 -07.5013 26263.0
 11 04 2013  04 53  -21.0300 26038.3 -03428.7 -07.5014 26263.1
 11 04 2013  04 54  -21.0300 26038.2 -03428.7 -07.5014 26263.0
 11 04 2013  04 55  -21.0301 26038.2 -03428.6 -07.5013 26263.0
 11 04 2013  04 56  -21.0301 26038.4 -03428.7 -07.5015 26263.2
 11 04 2013  04 57  -21.0300 26038.3 -03428.7 -07.5015 26263.1
 11 04 2013  04 58  -21.0300 26038.4 -03428.7 -07.5015 26263.2
 11 04 2013  04 59  -21.0301 26038.7 -03428.9 -07.5017 26263.5
 11 04 2013  05 00  -21.0299 26038.6 -03428.8 -07.5016 26263.4
 11 04 2013  05 01  -21.0297 26038.8 -03428.9 -07.5017 26263.6
 11 04 2013  05 02  -21.0295 26038.9 -03429.0 -07.5019 26263.7
 11 04 2013  05 03  -21.0293 26039.0 -03429.0 -07.5019 26263.8
 11 04 2013  05 04  -21.0292 26039.0 -03429.0 -07.5019 26263.8
 11 04 2013  05 05  -21.0291 26039.1 -03429.0 -07.5020 26263.9
 11 04 2013  05 06  -21.0290 26039.0 -03429.0 -07.5019 26263.8
 11 04 2013  05 07  -21.0289 26039.1 -03429.1 -07.5020 26264.0
 11 04 2013  05 08  -21.0287 26039.1 -03429.0 -07.5020 26263.9
 11 04 2013  05 09  -21.0286 26039.0 -03429.0 -07.5019 26263.8
 11 04 2013  05 10  -21.0285 26039.0 -03429.0 -07.5019 26263.8
 11 04 2013  05 11  -21.0285 26038.9 -03429.0 -07.5019 26263.7
 11 04 2013  05 12  -21.0285 26038.9 -03429.0 -07.5019 26263.7
 11 04 2013  05 13  -21.0286 26038.8 -03429.0 -07.5019 26263.6
 11 04 2013  05 14  -21.0287 26038.8 -03429.0 -07.5019 26263.6
