SAO LUIS EMBRACE-03 <223> 1 Min. Reported data

 DD MM YYYY  HH MM   D(Deg)  H(nT)   Z(nT)   I(Deg)   F(nT)

 11 08 2013  00 00  -21.0217 26038.1 -03471.8 -07.5946 26268.6
 11 08 2013  00 01  -21.0214 26038.1 -03471.7 -07.5946 26268.5
 11 08 2013  00 02  -21.0212 26038.1 -03471.8 -07.5947 26268.6
 11 08 2013  00 03  -21.0209 26038.2 -03471.9 -07.5950 26268.7
 11 08 2013  00 04  -21.0206 26038.5 -03472.1 -07.5953 26268.9
 11 08 2013  00 05  -21.0204 26038.6 -03472.3 -07.5956 26269.1
 11 08 2013  00 06  -21.0202 26038.8 -03472.4 -07.5958 26269.3
 11 08 2013  00 07  -21.0201 26038.8 -03472.4 -07.5959 26269.3
 11 08 2013  00 08  -21.0199 26038.8 -03472.5 -07.5960 26269.3
 11 08 2013  00 09  -21.0197 26038.9 -03472.6 -07.5962 26269.4
 11 08 2013  00 10  -21.0195 26039.0 -03472.6 -07.5963 26269.6
 11 08 2013  00 11  -21.0193 26039.0 -03472.7 -07.5964 26269.5
 11 08 2013  00 12  -21.0191 26039.0 -03472.6 -07.5963 26269.5
 11 08 2013  00 13  -21.0190 26038.9 -03472.6 -07.5963 26269.5
 11 08 2013  00 14  -21.0188 26039.0 -03472.7 -07.5964 26269.5
 11 08 2013  00 15  -21.0189 26039.1 -03472.8 -07.5966 26269.7
 11 08 2013  00 16  -21.0189 26039.2 -03472.9 -07.5968 26269.8
 11 08 2013  00 17  -21.0190 26039.3 -03472.9 -07.5968 26269.9
 11 08 2013  00 18  -21.0191 26039.2 -03472.9 -07.5968 26269.8
 11 08 2013  00 19  -21.0194 26039.1 -03472.9 -07.5968 26269.7
 11 08 2013  00 20  -21.0197 26038.8 -03472.7 -07.5966 26269.4
 11 08 2013  00 21  -21.0204 26038.2 -03472.5 -07.5961 26268.7
 11 08 2013  00 22  -21.0210 26037.6 -03472.1 -07.5956 26268.1
 11 08 2013  00 23  -21.0212 26037.2 -03471.9 -07.5952 26267.7
 11 08 2013  00 24  -21.0211 26037.1 -03471.8 -07.5951 26267.6
 11 08 2013  00 25  -21.0209 26037.0 -03471.8 -07.5951 26267.5
 11 08 2013  00 26  -21.0207 26037.1 -03471.9 -07.5952 26267.6
 11 08 2013  00 27  -21.0204 26037.3 -03472.0 -07.5954 26267.8
 11 08 2013  00 28  -21.0200 26037.5 -03472.1 -07.5956 26267.9
 11 08 2013  00 29  -21.0197 26037.6 -03472.2 -07.5958 26268.1
 11 08 2013  00 30  -21.0196 26037.6 -03472.3 -07.5960 26268.2
 11 08 2013  00 31  -21.0196 26037.7 -03472.3 -07.5960 26268.2
 11 08 2013  00 32  -21.0196 26037.6 -03472.3 -07.5961 26268.1
 11 08 2013  00 33  -21.0197 26037.6 -03472.4 -07.5961 26268.1
 11 08 2013  00 34  -21.0197 26037.7 -03472.4 -07.5962 26268.2
 11 08 2013  00 35  -21.0196 26037.6 -03472.4 -07.5963 26268.2
 11 08 2013  00 36  -21.0197 26037.5 -03472.4 -07.5963 26268.1
 11 08 2013  00 37  -21.0200 26037.4 -03472.4 -07.5962 26267.9
 11 08 2013  00 38  -21.0200 26037.4 -03472.4 -07.5962 26268.0
 11 08 2013  00 39  -21.0201 26037.4 -03472.4 -07.5962 26267.9
 11 08 2013  00 40  -21.0200 26037.4 -03472.4 -07.5962 26267.9
 11 08 2013  00 41  -21.0199 26037.4 -03472.4 -07.5962 26267.9
 11 08 2013  00 42  -21.0198 26037.4 -03472.4 -07.5962 26267.9
 11 08 2013  00 43  -21.0198 26037.3 -03472.4 -07.5963 26267.9
 11 08 2013  00 44  -21.0199 26037.4 -03472.5 -07.5964 26267.9
 11 08 2013  00 45  -21.0200 26037.4 -03472.5 -07.5964 26267.9
 11 08 2013  00 46  -21.0201 26037.4 -03472.5 -07.5965 26268.0
 11 08 2013  00 47  -21.0201 26037.4 -03472.5 -07.5964 26267.9
 11 08 2013  00 48  -21.0202 26037.3 -03472.5 -07.5964 26267.8
 11 08 2013  00 49  -21.0203 26037.1 -03472.4 -07.5963 26267.7
 11 08 2013  00 50  -21.0204 26037.1 -03472.4 -07.5963 26267.6
 11 08 2013  00 51  -21.0203 26037.1 -03472.4 -07.5962 26267.6
 11 08 2013  00 52  -21.0202 26037.1 -03472.4 -07.5963 26267.6
 11 08 2013  00 53  -21.0201 26037.1 -03472.4 -07.5963 26267.6
 11 08 2013  00 54  -21.0202 26036.9 -03472.3 -07.5962 26267.4
 11 08 2013  00 55  -21.0204 26036.8 -03472.3 -07.5962 26267.4
 11 08 2013  00 56  -21.0207 26036.8 -03472.3 -07.5962 26267.3
 11 08 2013  00 57  -21.0209 26036.7 -03472.3 -07.5962 26267.3
 11 08 2013  00 58  -21.0210 26036.6 -03472.3 -07.5962 26267.1
 11 08 2013  00 59  -21.0209 26036.6 -03472.2 -07.5961 26267.1
 11 08 2013  01 00  -21.0208 26036.5 -03472.2 -07.5961 26267.0
 11 08 2013  01 01  -21.0207 26036.5 -03472.2 -07.5961 26267.0
 11 08 2013  01 02  -21.0207 26036.5 -03472.2 -07.5961 26267.0
 11 08 2013  01 03  -21.0208 26036.3 -03472.2 -07.5961 26266.8
 11 08 2013  01 04  -21.0209 26036.1 -03472.1 -07.5960 26266.6
 11 08 2013  01 05  -21.0210 26035.9 -03472.0 -07.5959 26266.4
 11 08 2013  01 06  -21.0210 26035.8 -03472.0 -07.5958 26266.2
 11 08 2013  01 07  -21.0209 26035.7 -03472.0 -07.5958 26266.2
 11 08 2013  01 08  -21.0209 26035.8 -03472.0 -07.5959 26266.3
 11 08 2013  01 09  -21.0208 26035.7 -03472.0 -07.5960 26266.2
 11 08 2013  01 10  -21.0208 26035.6 -03472.0 -07.5959 26266.1
 11 08 2013  01 11  -21.0207 26035.6 -03472.0 -07.5960 26266.1
 11 08 2013  01 12  -21.0206 26035.8 -03472.1 -07.5962 26266.3
 11 08 2013  01 13  -21.0205 26036.0 -03472.3 -07.5964 26266.5
 11 08 2013  01 14  -21.0204 26036.1 -03472.4 -07.5965 26266.6
 11 08 2013  01 15  -21.0203 26036.0 -03472.4 -07.5966 26266.5
 11 08 2013  01 16  -21.0204 26036.0 -03472.4 -07.5966 26266.6
 11 08 2013  01 17  -21.0202 26036.1 -03472.4 -07.5966 26266.6
 11 08 2013  01 18  -21.0201 26036.1 -03472.4 -07.5967 26266.7
 11 08 2013  01 19  -21.0199 26036.2 -03472.5 -07.5967 26266.7
 11 08 2013  01 20  -21.0197 26036.2 -03472.5 -07.5968 26266.8
 11 08 2013  01 21  -21.0196 26036.2 -03472.5 -07.5968 26266.8
 11 08 2013  01 22  -21.0193 26036.1 -03472.4 -07.5967 26266.7
 11 08 2013  01 23  -21.0191 26036.0 -03472.4 -07.5966 26266.5
 11 08 2013  01 24  -21.0191 26035.8 -03472.3 -07.5965 26266.3
 11 08 2013  01 25  -21.0190 26035.6 -03472.3 -07.5965 26266.2
 11 08 2013  01 26  -21.0191 26035.6 -03472.3 -07.5965 26266.2
 11 08 2013  01 27  -21.0192 26035.6 -03472.4 -07.5966 26266.2
 11 08 2013  01 28  -21.0193 26035.6 -03472.4 -07.5967 26266.2
 11 08 2013  01 29  -21.0192 26035.6 -03472.4 -07.5967 26266.1
 11 08 2013  01 30  -21.0192 26035.6 -03472.4 -07.5968 26266.1
 11 08 2013  01 31  -21.0192 26035.6 -03472.4 -07.5968 26266.1
 11 08 2013  01 32  -21.0192 26035.5 -03472.4 -07.5968 26266.0
 11 08 2013  01 33  -21.0192 26035.3 -03472.3 -07.5966 26265.8
 11 08 2013  01 34  -21.0192 26035.2 -03472.3 -07.5966 26265.7
 11 08 2013  01 35  -21.0194 26035.2 -03472.3 -07.5966 26265.7
 11 08 2013  01 36  -21.0195 26035.1 -03472.2 -07.5966 26265.6
 11 08 2013  01 37  -21.0196 26035.0 -03472.2 -07.5966 26265.5
 11 08 2013  01 38  -21.0196 26034.9 -03472.2 -07.5966 26265.4
 11 08 2013  01 39  -21.0195 26034.9 -03472.2 -07.5966 26265.4
 11 08 2013  01 40  -21.0194 26035.0 -03472.2 -07.5966 26265.5
 11 08 2013  01 41  -21.0194 26035.0 -03472.3 -07.5966 26265.5
 11 08 2013  01 42  -21.0194 26034.8 -03472.2 -07.5966 26265.4
 11 08 2013  01 43  -21.0195 26034.7 -03472.2 -07.5965 26265.2
 11 08 2013  01 44  -21.0197 26034.6 -03472.2 -07.5966 26265.1
 11 08 2013  01 45  -21.0198 26034.7 -03472.2 -07.5966 26265.2
 11 08 2013  01 46  -21.0197 26034.8 -03472.3 -07.5968 26265.3
 11 08 2013  01 47  -21.0197 26034.7 -03472.2 -07.5967 26265.2
 11 08 2013  01 48  -21.0197 26034.6 -03472.2 -07.5967 26265.2
 11 08 2013  01 49  -21.0197 26034.5 -03472.2 -07.5966 26265.0
 11 08 2013  01 50  -21.0196 26034.5 -03472.2 -07.5965 26265.0
 11 08 2013  01 51  -21.0196 26034.5 -03472.2 -07.5966 26265.1
 11 08 2013  01 52  -21.0196 26034.4 -03472.2 -07.5966 26265.0
 11 08 2013  01 53  -21.0196 26034.3 -03472.1 -07.5965 26264.9
 11 08 2013  01 54  -21.0196 26034.3 -03472.1 -07.5965 26264.9
 11 08 2013  01 55  -21.0196 26034.2 -03472.1 -07.5965 26264.7
 11 08 2013  01 56  -21.0196 26034.3 -03472.1 -07.5965 26264.8
 11 08 2013  01 57  -21.0195 26034.4 -03472.2 -07.5966 26265.0
 11 08 2013  01 58  -21.0194 26034.5 -03472.2 -07.5967 26265.0
 11 08 2013  01 59  -21.0194 26034.5 -03472.2 -07.5968 26265.0
 11 08 2013  02 00  -21.0194 26034.4 -03472.3 -07.5968 26265.0
 11 08 2013  02 01  -21.0194 26034.5 -03472.3 -07.5969 26265.0
 11 08 2013  02 02  -21.0193 26034.6 -03472.3 -07.5969 26265.1
 11 08 2013  02 03  -21.0193 26034.6 -03472.3 -07.5969 26265.1
 11 08 2013  02 04  -21.0192 26034.7 -03472.4 -07.5970 26265.2
 11 08 2013  02 05  -21.0191 26034.8 -03472.4 -07.5971 26265.3
 11 08 2013  02 06  -21.0190 26034.9 -03472.5 -07.5971 26265.4
 11 08 2013  02 07  -21.0189 26034.8 -03472.4 -07.5971 26265.3
 11 08 2013  02 08  -21.0188 26034.9 -03472.5 -07.5971 26265.5
 11 08 2013  02 09  -21.0187 26035.1 -03472.6 -07.5973 26265.7
 11 08 2013  02 10  -21.0185 26035.3 -03472.7 -07.5975 26265.9
 11 08 2013  02 11  -21.0184 26035.3 -03472.7 -07.5975 26265.9
 11 08 2013  02 12  -21.0184 26035.4 -03472.7 -07.5976 26265.9
 11 08 2013  02 13  -21.0182 26035.5 -03472.8 -07.5976 26266.1
 11 08 2013  02 14  -21.0183 26035.6 -03472.8 -07.5977 26266.2
 11 08 2013  02 15  -21.0184 26035.6 -03472.8 -07.5976 26266.2
 11 08 2013  02 16  -21.0186 26035.5 -03472.7 -07.5975 26266.1
 11 08 2013  02 17  -21.0186 26035.4 -03472.7 -07.5974 26266.0
 11 08 2013  02 18  -21.0184 26035.5 -03472.7 -07.5974 26266.0
 11 08 2013  02 19  -21.0182 26035.5 -03472.7 -07.5974 26266.0
 11 08 2013  02 20  -21.0181 26035.5 -03472.7 -07.5975 26266.1
 11 08 2013  02 21  -21.0180 26035.6 -03472.8 -07.5975 26266.2
 11 08 2013  02 22  -21.0180 26035.6 -03472.8 -07.5975 26266.1
 11 08 2013  02 23  -21.0179 26035.5 -03472.7 -07.5974 26266.0
 11 08 2013  02 24  -21.0177 26035.7 -03472.8 -07.5975 26266.3
 11 08 2013  02 25  -21.0174 26036.0 -03473.0 -07.5978 26266.6
 11 08 2013  02 26  -21.0171 26036.3 -03473.1 -07.5981 26266.9
 11 08 2013  02 27  -21.0168 26036.4 -03473.2 -07.5982 26267.0
 11 08 2013  02 28  -21.0167 26036.3 -03473.1 -07.5982 26266.9
 11 08 2013  02 29  -21.0167 26036.2 -03473.1 -07.5981 26266.8
 11 08 2013  02 30  -21.0165 26036.2 -03473.1 -07.5981 26266.9
 11 08 2013  02 31  -21.0163 26036.4 -03473.2 -07.5982 26267.0
 11 08 2013  02 32  -21.0161 26036.5 -03473.3 -07.5984 26267.2
 11 08 2013  02 33  -21.0160 26036.6 -03473.4 -07.5986 26267.3
 11 08 2013  02 34  -21.0159 26036.8 -03473.4 -07.5986 26267.5
 11 08 2013  02 35  -21.0159 26037.0 -03473.5 -07.5988 26267.7
 11 08 2013  02 36  -21.0158 26037.1 -03473.6 -07.5989 26267.7
 11 08 2013  02 37  -21.0159 26036.9 -03473.5 -07.5987 26267.6
 11 08 2013  02 38  -21.0161 26036.7 -03473.3 -07.5985 26267.3
 11 08 2013  02 39  -21.0161 26036.6 -03473.3 -07.5983 26267.2
 11 08 2013  02 40  -21.0160 26036.6 -03473.3 -07.5983 26267.3
 11 08 2013  02 41  -21.0158 26036.7 -03473.3 -07.5984 26267.4
 11 08 2013  02 42  -21.0155 26036.8 -03473.3 -07.5984 26267.5
 11 08 2013  02 43  -21.0151 26037.0 -03473.4 -07.5985 26267.6
 11 08 2013  02 44  -21.0148 26037.1 -03473.5 -07.5986 26267.8
 11 08 2013  02 45  -21.0147 26037.2 -03473.5 -07.5987 26267.8
 11 08 2013  02 46  -21.0144 26037.4 -03473.6 -07.5988 26268.1
 11 08 2013  02 47  -21.0141 26037.4 -03473.6 -07.5988 26268.1
 11 08 2013  02 48  -21.0140 26037.4 -03473.6 -07.5987 26268.0
 11 08 2013  02 49  -21.0140 26037.1 -03473.4 -07.5986 26267.8
 11 08 2013  02 50  -21.0141 26036.8 -03473.3 -07.5983 26267.4
 11 08 2013  02 51  -21.0141 26036.5 -03473.2 -07.5981 26267.2
 11 08 2013  02 52  -21.0140 26036.4 -03473.1 -07.5981 26267.1
 11 08 2013  02 53  -21.0138 26036.4 -03473.1 -07.5980 26267.1
 11 08 2013  02 54  -21.0137 26036.3 -03473.1 -07.5980 26266.9
 11 08 2013  02 55  -21.0136 26036.2 -03473.0 -07.5979 26266.8
 11 08 2013  02 56  -21.0140 26035.9 -03472.9 -07.5978 26266.5
 11 08 2013  02 57  -21.0143 26035.5 -03472.8 -07.5976 26266.0
 11 08 2013  02 58  -21.0143 26035.4 -03472.8 -07.5976 26266.0
 11 08 2013  02 59  -21.0143 26035.3 -03472.7 -07.5975 26265.9
 11 08 2013  03 00  -21.0142 26035.3 -03472.8 -07.5976 26265.9
 11 08 2013  03 01  -21.0143 26035.4 -03472.8 -07.5978 26266.0
 11 08 2013  03 02  -21.0144 26035.3 -03472.8 -07.5978 26265.9
 11 08 2013  03 03  -21.0145 26035.0 -03472.7 -07.5975 26265.6
 11 08 2013  03 04  -21.0146 26034.8 -03472.6 -07.5975 26265.4
 11 08 2013  03 05  -21.0146 26034.7 -03472.6 -07.5974 26265.3
 11 08 2013  03 06  -21.0146 26034.7 -03472.6 -07.5975 26265.3
 11 08 2013  03 07  -21.0148 26034.6 -03472.6 -07.5974 26265.2
 11 08 2013  03 08  -21.0147 26034.5 -03472.6 -07.5974 26265.1
 11 08 2013  03 09  -21.0149 26034.3 -03472.5 -07.5974 26264.9
 11 08 2013  03 10  -21.0148 26034.4 -03472.6 -07.5974 26265.0
 11 08 2013  03 11  -21.0148 26034.5 -03472.6 -07.5975 26265.1
 11 08 2013  03 12  -21.0147 26034.6 -03472.7 -07.5976 26265.2
 11 08 2013  03 13  -21.0145 26034.7 -03472.7 -07.5977 26265.2
 11 08 2013  03 14  -21.0145 26034.7 -03472.8 -07.5978 26265.3
 11 08 2013  03 15  -21.0144 26034.7 -03472.8 -07.5979 26265.3
 11 08 2013  03 16  -21.0145 26034.6 -03472.8 -07.5979 26265.2
 11 08 2013  03 17  -21.0146 26034.5 -03472.7 -07.5978 26265.1
 11 08 2013  03 18  -21.0145 26034.5 -03472.7 -07.5978 26265.1
 11 08 2013  03 19  -21.0142 26034.7 -03472.8 -07.5980 26265.3
 11 08 2013  03 20  -21.0142 26034.7 -03472.9 -07.5981 26265.3
 11 08 2013  03 21  -21.0140 26034.6 -03472.8 -07.5979 26265.2
 11 08 2013  03 22  -21.0141 26034.8 -03473.0 -07.5982 26265.4
 11 08 2013  03 23  -21.0139 26034.9 -03473.0 -07.5983 26265.5
 11 08 2013  03 24  -21.0139 26034.7 -03472.9 -07.5982 26265.3
 11 08 2013  03 25  -21.0138 26034.8 -03473.0 -07.5983 26265.4
 11 08 2013  03 26  -21.0139 26034.5 -03472.9 -07.5982 26265.2
 11 08 2013  03 27  -21.0139 26034.6 -03472.9 -07.5982 26265.2
 11 08 2013  03 28  -21.0141 26034.4 -03472.9 -07.5982 26265.0
 11 08 2013  03 29  -21.0141 26034.1 -03472.8 -07.5981 26264.7
 11 08 2013  03 30  -21.0140 26034.1 -03472.7 -07.5979 26264.7
 11 08 2013  03 31  -21.0139 26034.1 -03472.8 -07.5980 26264.7
 11 08 2013  03 32  -21.0137 26034.1 -03472.8 -07.5980 26264.7
 11 08 2013  03 33  -21.0135 26034.3 -03472.9 -07.5981 26264.9
 11 08 2013  03 34  -21.0134 26034.2 -03472.9 -07.5982 26264.8
 11 08 2013  03 35  -21.0134 26034.0 -03472.8 -07.5981 26264.6
 11 08 2013  03 36  -21.0134 26033.9 -03472.8 -07.5980 26264.5
 11 08 2013  03 37  -21.0134 26033.9 -03472.8 -07.5982 26264.5
 11 08 2013  03 38  -21.0133 26033.7 -03472.7 -07.5980 26264.3
 11 08 2013  03 39  -21.0133 26033.6 -03472.7 -07.5981 26264.2
 11 08 2013  03 40  -21.0134 26033.0 -03472.5 -07.5977 26263.6
 11 08 2013  03 41  -21.0134 26033.1 -03472.5 -07.5978 26263.7
 11 08 2013  03 42  -21.0137 26033.0 -03472.6 -07.5979 26263.6
 11 08 2013  03 43  -21.0139 26032.9 -03472.6 -07.5979 26263.5
 11 08 2013  03 44  -21.0141 26032.9 -03472.6 -07.5981 26263.5
 11 08 2013  03 45  -21.0141 26032.9 -03472.6 -07.5981 26263.5
 11 08 2013  03 46  -21.0140 26033.0 -03472.7 -07.5982 26263.6
 11 08 2013  03 47  -21.0140 26033.0 -03472.8 -07.5983 26263.6
 11 08 2013  03 48  -21.0141 26032.9 -03472.7 -07.5983 26263.5
 11 08 2013  03 49  -21.0142 26032.6 -03472.6 -07.5981 26263.2
 11 08 2013  03 50  -21.0142 26032.6 -03472.6 -07.5981 26263.2
 11 08 2013  03 51  -21.0142 26032.6 -03472.6 -07.5981 26263.2
 11 08 2013  03 52  -21.0140 26032.6 -03472.6 -07.5981 26263.2
 11 08 2013  03 53  -21.0141 26032.7 -03472.7 -07.5983 26263.3
 11 08 2013  03 54  -21.0143 26032.4 -03472.6 -07.5982 26263.0
 11 08 2013  03 55  -21.0142 26032.3 -03472.6 -07.5981 26262.9
 11 08 2013  03 56  -21.0143 26032.2 -03472.6 -07.5982 26262.8
 11 08 2013  03 57  -21.0142 26032.4 -03472.7 -07.5982 26263.0
 11 08 2013  03 58  -21.0143 26032.3 -03472.7 -07.5983 26262.9
 11 08 2013  03 59  -21.0142 26032.3 -03472.7 -07.5984 26262.9
 11 08 2013  04 00  -21.0143 26032.3 -03472.7 -07.5984 26263.0
 11 08 2013  04 01  -21.0143 26032.4 -03472.7 -07.5984 26263.0
 11 08 2013  04 02  -21.0141 26032.9 -03473.0 -07.5988 26263.6
 11 08 2013  04 03  -21.0143 26032.9 -03473.1 -07.5991 26263.6
 11 08 2013  04 04  -21.0144 26033.0 -03473.1 -07.5990 26263.6
 11 08 2013  04 05  -21.0143 26033.2 -03473.2 -07.5992 26263.9
 11 08 2013  04 06  -21.0142 26033.5 -03473.3 -07.5994 26264.2
 11 08 2013  04 07  -21.0142 26033.5 -03473.4 -07.5994 26264.2
 11 08 2013  04 08  -21.0142 26033.7 -03473.4 -07.5995 26264.4
 11 08 2013  04 09  -21.0144 26033.8 -03473.5 -07.5997 26264.5
 11 08 2013  04 10  -21.0146 26033.8 -03473.5 -07.5997 26264.5
 11 08 2013  04 11  -21.0149 26034.0 -03473.6 -07.5998 26264.7
 11 08 2013  04 12  -21.0151 26034.0 -03473.6 -07.5998 26264.7
 11 08 2013  04 13  -21.0152 26034.1 -03473.6 -07.5998 26264.8
 11 08 2013  04 14  -21.0154 26034.0 -03473.6 -07.5997 26264.7
 11 08 2013  04 15  -21.0157 26034.1 -03473.5 -07.5996 26264.8
 11 08 2013  04 16  -21.0157 26034.6 -03473.7 -07.6000 26265.3
 11 08 2013  04 17  -21.0160 26034.0 -03473.5 -07.5996 26264.7
 11 08 2013  04 18  -21.0162 26034.1 -03473.5 -07.5996 26264.8
 11 08 2013  04 19  -21.0164 26034.0 -03473.4 -07.5994 26264.7
 11 08 2013  04 20  -21.0165 26034.2 -03473.5 -07.5995 26264.9
 11 08 2013  04 21  -21.0165 26034.1 -03473.5 -07.5995 26264.8
 11 08 2013  04 22  -21.0166 26034.0 -03473.4 -07.5993 26264.6
 11 08 2013  04 23  -21.0165 26034.0 -03473.4 -07.5993 26264.6
 11 08 2013  04 24  -21.0166 26033.6 -03473.2 -07.5990 26264.3
 11 08 2013  04 25  -21.0166 26033.6 -03473.1 -07.5989 26264.3
 11 08 2013  04 26  -21.0166 26033.6 -03473.2 -07.5990 26264.3
 11 08 2013  04 27  -21.0168 26033.6 -03473.2 -07.5990 26264.3
 11 08 2013  04 28  -21.0169 26033.4 -03473.1 -07.5989 26264.1
 11 08 2013  04 29  -21.0171 26033.3 -03473.1 -07.5989 26264.0
 11 08 2013  04 30  -21.0172 26033.1 -03473.0 -07.5988 26263.8
 11 08 2013  04 31  -21.0173 26033.0 -03472.9 -07.5987 26263.6
 11 08 2013  04 32  -21.0174 26032.9 -03472.9 -07.5986 26263.5
 11 08 2013  04 33  -21.0174 26032.9 -03472.9 -07.5986 26263.5
 11 08 2013  04 34  -21.0173 26033.1 -03473.0 -07.5988 26263.7
 11 08 2013  04 35  -21.0171 26033.2 -03473.1 -07.5989 26263.8
 11 08 2013  04 36  -21.0173 26033.1 -03473.0 -07.5989 26263.7
 11 08 2013  04 37  -21.0175 26032.8 -03472.9 -07.5987 26263.4
 11 08 2013  04 38  -21.0173 26033.0 -03473.0 -07.5988 26263.7
 11 08 2013  04 39  -21.0171 26033.0 -03473.0 -07.5988 26263.6
 11 08 2013  04 40  -21.0169 26033.1 -03473.0 -07.5989 26263.7
 11 08 2013  04 41  -21.0169 26033.2 -03473.1 -07.5990 26263.8
 11 08 2013  04 42  -21.0172 26032.6 -03472.9 -07.5988 26263.3
 11 08 2013  04 43  -21.0170 26032.7 -03472.9 -07.5987 26263.4
 11 08 2013  04 44  -21.0169 26033.0 -03473.0 -07.5989 26263.6
 11 08 2013  04 45  -21.0166 26033.2 -03473.2 -07.5991 26263.8
 11 08 2013  04 46  -21.0165 26033.5 -03473.3 -07.5993 26264.2
 11 08 2013  04 47  -21.0167 26033.2 -03473.3 -07.5993 26263.8
 11 08 2013  04 48  -21.0168 26033.2 -03473.2 -07.5992 26263.8
 11 08 2013  04 49  -21.0168 26033.1 -03473.2 -07.5993 26263.8
 11 08 2013  04 50  -21.0166 26033.2 -03473.2 -07.5992 26263.9
 11 08 2013  04 51  -21.0167 26033.0 -03473.2 -07.5993 26263.7
 11 08 2013  04 52  -21.0166 26033.1 -03473.2 -07.5993 26263.7
 11 08 2013  04 53  -21.0165 26033.4 -03473.4 -07.5996 26264.1
 11 08 2013  04 54  -21.0165 26033.3 -03473.4 -07.5996 26263.9
 11 08 2013  04 55  -21.0167 26033.1 -03473.3 -07.5995 26263.8
 11 08 2013  04 56  -21.0166 26033.3 -03473.4 -07.5996 26264.0
 11 08 2013  04 57  -21.0167 26033.2 -03473.4 -07.5996 26263.9
 11 08 2013  04 58  -21.0168 26033.3 -03473.4 -07.5996 26264.0
 11 08 2013  04 59  -21.0169 26033.2 -03473.3 -07.5995 26263.9
 11 08 2013  05 00  -21.0168 26033.2 -03473.3 -07.5995 26263.9
 11 08 2013  05 01  -21.0166 26033.2 -03473.4 -07.5996 26263.9
 11 08 2013  05 02  -21.0165 26033.2 -03473.4 -07.5996 26263.9
 11 08 2013  05 03  -21.0159 26033.6 -03473.5 -07.5998 26264.3
 11 08 2013  05 04  -21.0156 26033.8 -03473.7 -07.6000 26264.5
 11 08 2013  05 05  -21.0155 26034.0 -03473.7 -07.6001 26264.7
 11 08 2013  05 06  -21.0153 26034.5 -03474.0 -07.6006 26265.2
 11 08 2013  05 07  -21.0153 26034.8 -03474.2 -07.6009 26265.6
 11 08 2013  05 08  -21.0154 26034.4 -03474.0 -07.6006 26265.1
 11 08 2013  05 09  -21.0153 26034.9 -03474.2 -07.6008 26265.7
 11 08 2013  05 10  -21.0151 26035.1 -03474.3 -07.6009 26265.9
 11 08 2013  05 11  -21.0148 26035.8 -03474.6 -07.6014 26266.6
 11 08 2013  05 12  -21.0148 26035.8 -03474.6 -07.6015 26266.7
 11 08 2013  05 13  -21.0148 26036.1 -03474.7 -07.6017 26267.0
 11 08 2013  05 14  -21.0149 26036.3 -03474.8 -07.6018 26267.1
