SAO LUIS EMBRACE-03 <314> 1 Min. Reported data

 DD MM YYYY  HH MM   D(Deg)  H(nT)   Z(nT)   I(Deg)   F(nT)

 10 11 2013  00 00  -21.0199 25998.6 -03505.2 -07.6786 26233.8
 10 11 2013  00 01  -21.0201 25998.5 -03505.3 -07.6786 26233.7
 10 11 2013  00 02  -21.0205 25998.4 -03505.3 -07.6787 26233.6
 10 11 2013  00 03  -21.0209 25998.1 -03505.2 -07.6785 26233.3
 10 11 2013  00 04  -21.0214 25997.9 -03505.1 -07.6785 26233.1
 10 11 2013  00 05  -21.0216 25997.8 -03505.1 -07.6784 26233.0
 10 11 2013  00 06  -21.0216 25997.9 -03505.1 -07.6785 26233.1
 10 11 2013  00 07  -21.0216 25998.2 -03505.3 -07.6787 26233.5
 10 11 2013  00 08  -21.0216 25998.6 -03505.5 -07.6790 26233.8
 10 11 2013  00 09  -21.0216 25998.7 -03505.6 -07.6792 26234.0
 10 11 2013  00 10  -21.0218 25998.5 -03505.5 -07.6791 26233.8
 10 11 2013  00 11  -21.0217 25998.4 -03505.4 -07.6789 26233.7
 10 11 2013  00 12  -21.0213 25998.4 -03505.4 -07.6789 26233.6
 10 11 2013  00 13  -21.0210 25998.5 -03505.4 -07.6788 26233.7
 10 11 2013  00 14  -21.0208 25998.5 -03505.4 -07.6789 26233.7
 10 11 2013  00 15  -21.0205 25998.6 -03505.4 -07.6790 26233.9
 10 11 2013  00 16  -21.0204 25998.7 -03505.5 -07.6791 26234.0
 10 11 2013  00 17  -21.0205 25998.9 -03505.6 -07.6793 26234.1
 10 11 2013  00 18  -21.0205 25998.9 -03505.7 -07.6794 26234.2
 10 11 2013  00 19  -21.0204 25998.9 -03505.6 -07.6793 26234.2
 10 11 2013  00 20  -21.0204 25998.8 -03505.6 -07.6793 26234.0
 10 11 2013  00 21  -21.0202 25998.9 -03505.6 -07.6793 26234.2
 10 11 2013  00 22  -21.0201 25999.3 -03505.8 -07.6796 26234.6
 10 11 2013  00 23  -21.0200 25999.4 -03505.9 -07.6797 26234.7
 10 11 2013  00 24  -21.0203 25999.1 -03505.8 -07.6796 26234.4
 10 11 2013  00 25  -21.0207 25998.7 -03505.6 -07.6793 26234.0
 10 11 2013  00 26  -21.0209 25998.2 -03505.4 -07.6789 26233.4
 10 11 2013  00 27  -21.0207 25997.8 -03505.1 -07.6785 26233.0
 10 11 2013  00 28  -21.0206 25997.6 -03505.0 -07.6782 26232.8
 10 11 2013  00 29  -21.0206 25997.6 -03505.0 -07.6784 26232.9
 10 11 2013  00 30  -21.0207 25997.8 -03505.2 -07.6787 26233.1
 10 11 2013  00 31  -21.0207 25998.2 -03505.4 -07.6790 26233.5
 10 11 2013  00 32  -21.0208 25998.5 -03505.6 -07.6793 26233.7
 10 11 2013  00 33  -21.0210 25998.6 -03505.6 -07.6794 26233.9
 10 11 2013  00 34  -21.0209 25998.6 -03505.7 -07.6795 26233.9
 10 11 2013  00 35  -21.0206 25998.8 -03505.7 -07.6795 26234.1
 10 11 2013  00 36  -21.0203 25999.0 -03505.8 -07.6795 26234.3
 10 11 2013  00 37  -21.0201 25999.0 -03505.8 -07.6796 26234.3
 10 11 2013  00 38  -21.0198 25998.8 -03505.7 -07.6794 26234.1
 10 11 2013  00 39  -21.0195 25998.7 -03505.6 -07.6793 26234.0
 10 11 2013  00 40  -21.0194 25998.6 -03505.5 -07.6791 26233.9
 10 11 2013  00 41  -21.0194 25998.5 -03505.5 -07.6792 26233.8
 10 11 2013  00 42  -21.0195 25998.6 -03505.5 -07.6791 26233.8
 10 11 2013  00 43  -21.0196 25998.4 -03505.5 -07.6791 26233.7
 10 11 2013  00 44  -21.0197 25998.4 -03505.5 -07.6791 26233.7
 10 11 2013  00 45  -21.0197 25998.5 -03505.5 -07.6792 26233.8
 10 11 2013  00 46  -21.0197 25998.7 -03505.6 -07.6794 26234.0
 10 11 2013  00 47  -21.0198 25998.8 -03505.7 -07.6794 26234.1
 10 11 2013  00 48  -21.0200 25998.8 -03505.7 -07.6794 26234.0
 10 11 2013  00 49  -21.0200 25998.5 -03505.5 -07.6792 26233.8
 10 11 2013  00 50  -21.0201 25998.4 -03505.4 -07.6789 26233.6
 10 11 2013  00 51  -21.0204 25998.1 -03505.3 -07.6788 26233.4
 10 11 2013  00 52  -21.0208 25997.9 -03505.1 -07.6785 26233.2
 10 11 2013  00 53  -21.0212 25997.7 -03505.1 -07.6784 26233.0
 10 11 2013  00 54  -21.0216 25997.5 -03505.0 -07.6783 26232.7
 10 11 2013  00 55  -21.0220 25997.4 -03504.9 -07.6782 26232.6
 10 11 2013  00 56  -21.0224 25997.3 -03504.9 -07.6782 26232.5
 10 11 2013  00 57  -21.0226 25997.2 -03504.8 -07.6781 26232.4
 10 11 2013  00 58  -21.0232 25997.1 -03504.8 -07.6780 26232.3
 10 11 2013  00 59  -21.0238 25996.9 -03504.8 -07.6780 26232.1
 10 11 2013  01 00  -21.0244 25996.6 -03504.6 -07.6778 26231.7
 10 11 2013  01 01  -21.0244 25996.2 -03504.4 -07.6773 26231.3
 10 11 2013  01 02  -21.0245 25995.7 -03504.2 -07.6770 26230.9
 10 11 2013  01 03  -21.0251 25995.4 -03504.0 -07.6769 26230.5
 10 11 2013  01 04  -21.0258 25995.0 -03503.9 -07.6767 26230.1
 10 11 2013  01 05  -21.0258 25994.5 -03503.7 -07.6764 26229.6
 10 11 2013  01 06  -21.0254 25994.2 -03503.5 -07.6761 26229.3
 10 11 2013  01 07  -21.0248 25994.2 -03503.6 -07.6762 26229.3
 10 11 2013  01 08  -21.0248 25994.4 -03503.8 -07.6766 26229.5
 10 11 2013  01 09  -21.0252 25994.2 -03503.8 -07.6767 26229.3
 10 11 2013  01 10  -21.0261 25993.9 -03503.8 -07.6767 26229.0
 10 11 2013  01 11  -21.0267 25993.4 -03503.6 -07.6765 26228.5
 10 11 2013  01 12  -21.0273 25993.3 -03503.5 -07.6764 26228.3
 10 11 2013  01 13  -21.0275 25993.0 -03503.4 -07.6763 26228.1
 10 11 2013  01 14  -21.0270 25992.7 -03503.3 -07.6761 26227.7
 10 11 2013  01 15  -21.0267 25992.7 -03503.3 -07.6761 26227.8
 10 11 2013  01 16  -21.0262 25993.5 -03503.6 -07.6765 26228.5
 10 11 2013  01 17  -21.0263 25993.0 -03503.6 -07.6767 26228.1
 10 11 2013  01 18  -21.0271 25993.4 -03503.8 -07.6770 26228.4
 10 11 2013  01 19  -21.0271 25993.1 -03503.8 -07.6770 26228.1
 10 11 2013  01 20  -21.0267 25992.9 -03503.6 -07.6767 26228.0
 10 11 2013  01 21  -21.0259 25994.7 -03504.5 -07.6780 26229.9
 10 11 2013  01 22  -21.0264 25995.0 -03504.8 -07.6786 26230.2
 10 11 2013  01 23  -21.0255 25996.3 -03505.5 -07.6799 26231.6
 10 11 2013  01 24  -21.0252 25996.4 -03505.6 -07.6800 26231.7
 10 11 2013  01 25  -21.0241 25996.5 -03505.6 -07.6799 26231.8
 10 11 2013  01 26  -21.0243 25996.5 -03505.6 -07.6798 26231.8
 10 11 2013  01 27  -21.0249 25997.1 -03505.9 -07.6804 26232.4
 10 11 2013  01 28  -21.0257 25997.3 -03506.1 -07.6807 26232.7
 10 11 2013  01 29  -21.0260 25997.3 -03506.0 -07.6806 26232.6
 10 11 2013  01 30  -21.0259 25997.4 -03506.0 -07.6805 26232.8
 10 11 2013  01 31  -21.0259 25997.2 -03505.9 -07.6803 26232.6
 10 11 2013  01 32  -21.0261 25997.2 -03505.8 -07.6802 26232.5
 10 11 2013  01 33  -21.0266 25997.4 -03505.9 -07.6803 26232.8
 10 11 2013  01 34  -21.0269 25997.6 -03506.0 -07.6805 26232.9
 10 11 2013  01 35  -21.0271 25997.5 -03505.9 -07.6802 26232.8
 10 11 2013  01 36  -21.0272 25997.2 -03505.7 -07.6798 26232.5
 10 11 2013  01 37  -21.0273 25997.2 -03505.6 -07.6798 26232.5
 10 11 2013  01 38  -21.0278 25996.9 -03505.5 -07.6796 26232.2
 10 11 2013  01 39  -21.0277 25997.2 -03505.6 -07.6797 26232.5
 10 11 2013  01 40  -21.0280 25996.8 -03505.4 -07.6794 26232.1
 10 11 2013  01 41  -21.0280 25997.0 -03505.4 -07.6794 26232.2
 10 11 2013  01 42  -21.0278 25997.1 -03505.4 -07.6793 26232.4
 10 11 2013  01 43  -21.0276 25997.2 -03505.4 -07.6792 26232.4
 10 11 2013  01 44  -21.0271 25997.2 -03505.4 -07.6792 26232.5
 10 11 2013  01 45  -21.0265 25997.2 -03505.3 -07.6792 26232.4
 10 11 2013  01 46  -21.0258 25997.3 -03505.3 -07.6791 26232.6
 10 11 2013  01 47  -21.0258 25997.5 -03505.4 -07.6793 26232.8
 10 11 2013  01 48  -21.0258 25997.5 -03505.5 -07.6794 26232.8
 10 11 2013  01 49  -21.0252 25997.3 -03505.4 -07.6792 26232.6
 10 11 2013  01 50  -21.0248 25997.2 -03505.3 -07.6790 26232.4
 10 11 2013  01 51  -21.0247 25997.1 -03505.2 -07.6789 26232.3
 10 11 2013  01 52  -21.0251 25996.9 -03505.2 -07.6789 26232.2
 10 11 2013  01 53  -21.0254 25996.8 -03505.1 -07.6789 26232.0
 10 11 2013  01 54  -21.0258 25996.7 -03505.1 -07.6788 26231.9
 10 11 2013  01 55  -21.0261 25996.4 -03505.1 -07.6788 26231.7
 10 11 2013  01 56  -21.0263 25996.2 -03504.9 -07.6786 26231.4
 10 11 2013  01 57  -21.0264 25995.9 -03504.7 -07.6782 26231.1
 10 11 2013  01 58  -21.0269 25995.8 -03504.7 -07.6782 26231.0
 10 11 2013  01 59  -21.0271 25995.7 -03504.7 -07.6782 26230.9
 10 11 2013  02 00  -21.0271 25995.4 -03504.6 -07.6780 26230.6
 10 11 2013  02 01  -21.0273 25995.1 -03504.4 -07.6777 26230.2
 10 11 2013  02 02  -21.0278 25994.8 -03504.2 -07.6775 26229.9
 10 11 2013  02 03  -21.0281 25994.6 -03504.2 -07.6774 26229.7
 10 11 2013  02 04  -21.0286 25994.3 -03504.0 -07.6772 26229.4
 10 11 2013  02 05  -21.0288 25994.1 -03503.9 -07.6770 26229.2
 10 11 2013  02 06  -21.0292 25993.7 -03503.8 -07.6768 26228.8
 10 11 2013  02 07  -21.0293 25993.6 -03503.6 -07.6765 26228.6
 10 11 2013  02 08  -21.0298 25993.3 -03503.6 -07.6764 26228.4
 10 11 2013  02 09  -21.0302 25993.3 -03503.5 -07.6764 26228.4
 10 11 2013  02 10  -21.0308 25993.2 -03503.6 -07.6765 26228.3
 10 11 2013  02 11  -21.0309 25993.2 -03503.6 -07.6765 26228.2
 10 11 2013  02 12  -21.0312 25993.1 -03503.5 -07.6763 26228.1
 10 11 2013  02 13  -21.0317 25992.9 -03503.5 -07.6764 26228.0
 10 11 2013  02 14  -21.0321 25992.8 -03503.4 -07.6763 26227.9
 10 11 2013  02 15  -21.0324 25992.8 -03503.4 -07.6763 26227.8
 10 11 2013  02 16  -21.0324 25992.7 -03503.3 -07.6761 26227.7
 10 11 2013  02 17  -21.0324 25992.3 -03503.1 -07.6758 26227.3
 10 11 2013  02 18  -21.0322 25992.2 -03503.1 -07.6757 26227.2
 10 11 2013  02 19  -21.0321 25992.2 -03503.1 -07.6758 26227.2
 10 11 2013  02 20  -21.0323 25992.2 -03503.1 -07.6758 26227.2
 10 11 2013  02 21  -21.0324 25992.2 -03503.1 -07.6758 26227.2
 10 11 2013  02 22  -21.0325 25992.1 -03503.1 -07.6758 26227.1
 10 11 2013  02 23  -21.0324 25992.0 -03503.0 -07.6757 26227.0
 10 11 2013  02 24  -21.0324 25991.9 -03503.0 -07.6757 26226.9
 10 11 2013  02 25  -21.0323 25991.9 -03503.1 -07.6758 26226.9
 10 11 2013  02 26  -21.0324 25991.7 -03503.0 -07.6757 26226.7
 10 11 2013  02 27  -21.0321 25991.5 -03502.9 -07.6756 26226.5
 10 11 2013  02 28  -21.0323 25991.5 -03502.9 -07.6756 26226.5
 10 11 2013  02 29  -21.0320 25991.2 -03502.8 -07.6755 26226.2
 10 11 2013  02 30  -21.0313 25991.1 -03502.7 -07.6753 26226.0
 10 11 2013  02 31  -21.0308 25990.8 -03502.7 -07.6752 26225.8
 10 11 2013  02 32  -21.0307 25990.7 -03502.6 -07.6751 26225.6
 10 11 2013  02 33  -21.0307 25990.7 -03502.7 -07.6753 26225.7
 10 11 2013  02 34  -21.0308 25990.7 -03502.7 -07.6754 26225.7
 10 11 2013  02 35  -21.0306 25990.6 -03502.8 -07.6756 26225.6
 10 11 2013  02 36  -21.0304 25990.5 -03502.8 -07.6757 26225.5
 10 11 2013  02 37  -21.0301 25990.4 -03502.8 -07.6757 26225.4
 10 11 2013  02 38  -21.0298 25990.3 -03502.8 -07.6756 26225.2
 10 11 2013  02 39  -21.0299 25990.1 -03502.7 -07.6756 26225.1
 10 11 2013  02 40  -21.0300 25990.0 -03502.7 -07.6756 26225.0
 10 11 2013  02 41  -21.0299 25990.1 -03502.8 -07.6758 26225.1
 10 11 2013  02 42  -21.0301 25990.3 -03503.0 -07.6761 26225.3
 10 11 2013  02 43  -21.0303 25990.4 -03503.1 -07.6762 26225.4
 10 11 2013  02 44  -21.0307 25990.4 -03503.2 -07.6764 26225.5
 10 11 2013  02 45  -21.0308 25990.5 -03503.2 -07.6765 26225.5
 10 11 2013  02 46  -21.0308 25990.5 -03503.2 -07.6764 26225.5
 10 11 2013  02 47  -21.0304 25990.5 -03503.2 -07.6764 26225.5
 10 11 2013  02 48  -21.0297 25990.3 -03503.0 -07.6762 26225.3
 10 11 2013  02 49  -21.0292 25990.3 -03503.0 -07.6762 26225.3
 10 11 2013  02 50  -21.0291 25990.1 -03503.0 -07.6762 26225.2
 10 11 2013  02 51  -21.0291 25990.1 -03503.1 -07.6764 26225.1
 10 11 2013  02 52  -21.0294 25990.2 -03503.2 -07.6766 26225.2
 10 11 2013  02 53  -21.0297 25990.4 -03503.4 -07.6769 26225.4
 10 11 2013  02 54  -21.0297 25990.6 -03503.6 -07.6772 26225.7
 10 11 2013  02 55  -21.0296 25990.8 -03503.7 -07.6775 26225.9
 10 11 2013  02 56  -21.0294 25990.8 -03503.7 -07.6775 26225.9
 10 11 2013  02 57  -21.0286 25990.7 -03503.7 -07.6775 26225.8
 10 11 2013  02 58  -21.0281 25990.8 -03503.8 -07.6776 26225.9
 10 11 2013  02 59  -21.0275 25991.0 -03503.8 -07.6777 26226.1
 10 11 2013  03 00  -21.0277 25991.3 -03504.1 -07.6781 26226.4
 10 11 2013  03 01  -21.0279 25991.7 -03504.3 -07.6786 26226.8
 10 11 2013  03 02  -21.0273 25991.9 -03504.5 -07.6788 26227.1
 10 11 2013  03 03  -21.0267 25992.3 -03504.7 -07.6791 26227.6
 10 11 2013  03 04  -21.0261 25992.7 -03504.8 -07.6793 26227.9
 10 11 2013  03 05  -21.0259 25993.3 -03505.1 -07.6798 26228.5
 10 11 2013  03 06  -21.0260 25993.8 -03505.4 -07.6802 26229.1
 10 11 2013  03 07  -21.0263 25993.9 -03505.5 -07.6805 26229.3
 10 11 2013  03 08  -21.0264 25994.0 -03505.5 -07.6805 26229.3
 10 11 2013  03 09  -21.0263 25994.1 -03505.5 -07.6804 26229.4
 10 11 2013  03 10  -21.0263 25994.2 -03505.5 -07.6804 26229.5
 10 11 2013  03 11  -21.0263 25994.4 -03505.6 -07.6805 26229.7
 10 11 2013  03 12  -21.0266 25994.6 -03505.7 -07.6807 26229.9
 10 11 2013  03 13  -21.0270 25995.0 -03505.9 -07.6810 26230.3
 10 11 2013  03 14  -21.0274 25995.1 -03505.9 -07.6810 26230.5
 10 11 2013  03 15  -21.0277 25995.2 -03505.9 -07.6809 26230.6
 10 11 2013  03 16  -21.0279 25995.2 -03505.8 -07.6807 26230.6
 10 11 2013  03 17  -21.0280 25995.2 -03505.7 -07.6805 26230.5
 10 11 2013  03 18  -21.0277 25995.1 -03505.6 -07.6803 26230.4
 10 11 2013  03 19  -21.0273 25995.2 -03505.5 -07.6801 26230.5
 10 11 2013  03 20  -21.0270 25995.3 -03505.5 -07.6801 26230.6
 10 11 2013  03 21  -21.0268 25995.5 -03505.6 -07.6802 26230.8
 10 11 2013  03 22  -21.0268 25995.7 -03505.7 -07.6804 26231.0
 10 11 2013  03 23  -21.0268 25995.8 -03505.8 -07.6805 26231.2
 10 11 2013  03 24  -21.0269 25995.9 -03505.8 -07.6805 26231.3
 10 11 2013  03 25  -21.0270 25996.1 -03505.8 -07.6805 26231.4
 10 11 2013  03 26  -21.0270 25996.2 -03505.8 -07.6805 26231.6
 10 11 2013  03 27  -21.0270 25996.3 -03505.8 -07.6805 26231.6
 10 11 2013  03 28  -21.0271 25996.3 -03505.8 -07.6805 26231.6
 10 11 2013  03 29  -21.0272 25996.4 -03505.8 -07.6804 26231.7
 10 11 2013  03 30  -21.0272 25996.5 -03505.8 -07.6803 26231.8
 10 11 2013  03 31  -21.0273 25996.5 -03505.8 -07.6803 26231.8
 10 11 2013  03 32  -21.0275 25996.8 -03505.8 -07.6803 26232.1
 10 11 2013  03 33  -21.0276 25997.0 -03505.9 -07.6803 26232.3
 10 11 2013  03 34  -21.0277 25997.0 -03505.8 -07.6803 26232.3
 10 11 2013  03 35  -21.0277 25997.0 -03505.9 -07.6804 26232.3
 10 11 2013  03 36  -21.0275 25997.0 -03505.8 -07.6803 26232.3
 10 11 2013  03 37  -21.0274 25997.0 -03505.8 -07.6801 26232.3
 10 11 2013  03 38  -21.0276 25997.0 -03505.8 -07.6801 26232.3
 10 11 2013  03 39  -21.0279 25997.0 -03505.7 -07.6801 26232.3
 10 11 2013  03 40  -21.0282 25997.0 -03505.7 -07.6800 26232.3
 10 11 2013  03 41  -21.0286 25997.0 -03505.7 -07.6800 26232.3
 10 11 2013  03 42  -21.0286 25996.9 -03505.6 -07.6798 26232.2
 10 11 2013  03 43  -21.0285 25996.7 -03505.5 -07.6796 26232.0
 10 11 2013  03 44  -21.0283 25996.7 -03505.4 -07.6795 26231.9
 10 11 2013  03 45  -21.0281 25996.6 -03505.3 -07.6793 26231.9
 10 11 2013  03 46  -21.0281 25996.7 -03505.3 -07.6792 26231.9
 10 11 2013  03 47  -21.0282 25996.7 -03505.3 -07.6793 26232.0
 10 11 2013  03 48  -21.0282 25996.7 -03505.3 -07.6792 26232.0
 10 11 2013  03 49  -21.0284 25996.7 -03505.3 -07.6793 26231.9
 10 11 2013  03 50  -21.0287 25996.7 -03505.3 -07.6793 26231.9
 10 11 2013  03 51  -21.0290 25996.7 -03505.3 -07.6793 26232.0
 10 11 2013  03 52  -21.0293 25996.7 -03505.3 -07.6792 26232.0
 10 11 2013  03 53  -21.0295 25996.7 -03505.3 -07.6792 26231.9
 10 11 2013  03 54  -21.0299 25996.6 -03505.2 -07.6791 26231.9
 10 11 2013  03 55  -21.0301 25996.7 -03505.2 -07.6790 26231.9
 10 11 2013  03 56  -21.0304 25996.7 -03505.2 -07.6790 26231.9
 10 11 2013  03 57  -21.0307 25996.7 -03505.2 -07.6789 26231.9
 10 11 2013  03 58  -21.0308 25996.6 -03505.1 -07.6788 26231.9
 10 11 2013  03 59  -21.0309 25996.6 -03505.0 -07.6787 26231.8
 10 11 2013  04 00  -21.0310 25996.5 -03505.0 -07.6786 26231.8
 10 11 2013  04 01  -21.0313 25996.4 -03504.9 -07.6785 26231.6
 10 11 2013  04 02  -21.0314 25996.3 -03504.9 -07.6784 26231.5
 10 11 2013  04 03  -21.0314 25996.0 -03504.7 -07.6782 26231.2
 10 11 2013  04 04  -21.0316 25995.8 -03504.6 -07.6781 26231.0
 10 11 2013  04 05  -21.0316 25995.7 -03504.6 -07.6779 26230.9
 10 11 2013  04 06  -21.0318 25995.7 -03504.6 -07.6779 26230.9
 10 11 2013  04 07  -21.0318 25995.6 -03504.5 -07.6779 26230.8
 10 11 2013  04 08  -21.0323 25995.4 -03504.5 -07.6778 26230.5
 10 11 2013  04 09  -21.0328 25995.2 -03504.4 -07.6776 26230.3
 10 11 2013  04 10  -21.0330 25995.5 -03504.5 -07.6778 26230.6
 10 11 2013  04 11  -21.0335 25995.8 -03504.7 -07.6781 26231.0
 10 11 2013  04 12  -21.0339 25996.1 -03504.9 -07.6784 26231.3
 10 11 2013  04 13  -21.0342 25996.3 -03505.0 -07.6786 26231.5
 10 11 2013  04 14  -21.0341 25996.6 -03505.1 -07.6788 26231.8
 10 11 2013  04 15  -21.0340 25996.8 -03505.2 -07.6789 26232.1
 10 11 2013  04 16  -21.0338 25997.0 -03505.2 -07.6789 26232.2
 10 11 2013  04 17  -21.0337 25997.0 -03505.2 -07.6789 26232.3
 10 11 2013  04 18  -21.0338 25996.8 -03505.1 -07.6787 26232.1
 10 11 2013  04 19  -21.0336 25996.6 -03505.0 -07.6785 26231.8
 10 11 2013  04 20  -21.0333 25996.4 -03504.8 -07.6783 26231.6
 10 11 2013  04 21  -21.0331 25996.3 -03504.7 -07.6781 26231.5
 10 11 2013  04 22  -21.0331 25996.2 -03504.7 -07.6781 26231.4
 10 11 2013  04 23  -21.0328 25996.3 -03504.8 -07.6782 26231.5
 10 11 2013  04 24  -21.0326 25996.1 -03504.7 -07.6781 26231.3
 10 11 2013  04 25  -21.0324 25996.1 -03504.7 -07.6782 26231.3
 10 11 2013  04 26  -21.0324 25996.1 -03504.8 -07.6783 26231.2
 10 11 2013  04 27  -21.0324 25996.1 -03504.8 -07.6784 26231.3
 10 11 2013  04 28  -21.0325 25996.1 -03504.9 -07.6785 26231.3
 10 11 2013  04 29  -21.0325 25996.2 -03504.9 -07.6786 26231.4
 10 11 2013  04 30  -21.0326 25996.3 -03505.0 -07.6787 26231.6
 10 11 2013  04 31  -21.0326 25996.4 -03505.1 -07.6788 26231.6
 10 11 2013  04 32  -21.0327 25996.3 -03505.1 -07.6788 26231.6
 10 11 2013  04 33  -21.0325 25996.3 -03505.0 -07.6788 26231.5
 10 11 2013  04 34  -21.0325 25996.0 -03504.9 -07.6786 26231.2
 10 11 2013  04 35  -21.0321 25995.8 -03504.9 -07.6785 26231.0
 10 11 2013  04 36  -21.0321 25995.8 -03504.8 -07.6784 26231.0
 10 11 2013  04 37  -21.0322 25996.0 -03505.0 -07.6787 26231.2
 10 11 2013  04 38  -21.0323 25996.1 -03505.1 -07.6789 26231.3
 10 11 2013  04 39  -21.0324 25996.1 -03505.1 -07.6790 26231.3
 10 11 2013  04 40  -21.0325 25996.0 -03505.1 -07.6789 26231.2
 10 11 2013  04 41  -21.0325 25996.0 -03505.0 -07.6789 26231.2
 10 11 2013  04 42  -21.0323 25995.9 -03505.0 -07.6788 26231.1
 10 11 2013  04 43  -21.0322 25995.8 -03505.0 -07.6788 26231.0
 10 11 2013  04 44  -21.0321 25995.7 -03505.0 -07.6788 26230.9
 10 11 2013  04 45  -21.0323 25995.6 -03504.9 -07.6787 26230.8
 10 11 2013  04 46  -21.0324 25995.6 -03504.9 -07.6787 26230.8
 10 11 2013  04 47  -21.0322 25995.9 -03505.1 -07.6790 26231.1
 10 11 2013  04 48  -21.0320 25996.1 -03505.2 -07.6793 26231.4
 10 11 2013  04 49  -21.0319 25996.4 -03505.4 -07.6795 26231.7
 10 11 2013  04 50  -21.0318 25996.7 -03505.5 -07.6797 26232.0
 10 11 2013  04 51  -21.0319 25996.9 -03505.7 -07.6800 26232.2
 10 11 2013  04 52  -21.0318 25997.1 -03505.8 -07.6801 26232.5
 10 11 2013  04 53  -21.0316 25997.5 -03506.0 -07.6805 26232.9
 10 11 2013  04 54  -21.0317 25997.6 -03506.1 -07.6806 26233.0
 10 11 2013  04 55  -21.0314 25997.7 -03506.0 -07.6805 26233.0
 10 11 2013  04 56  -21.0310 25997.7 -03506.0 -07.6803 26233.1
 10 11 2013  04 57  -21.0303 25997.6 -03505.9 -07.6802 26232.9
 10 11 2013  04 58  -21.0298 25997.4 -03505.7 -07.6800 26232.7
 10 11 2013  04 59  -21.0298 25997.3 -03505.7 -07.6800 26232.6
 10 11 2013  05 00  -21.0300 25997.3 -03505.8 -07.6801 26232.6
 10 11 2013  05 01  -21.0302 25997.4 -03505.9 -07.6803 26232.7
 10 11 2013  05 02  -21.0304 25997.5 -03505.9 -07.6804 26232.9
 10 11 2013  05 03  -21.0306 25997.6 -03506.0 -07.6804 26232.9
 10 11 2013  05 04  -21.0307 25997.7 -03506.0 -07.6804 26233.0
 10 11 2013  05 05  -21.0308 25997.9 -03506.1 -07.6805 26233.2
 10 11 2013  05 06  -21.0309 25998.1 -03506.2 -07.6807 26233.5
 10 11 2013  05 07  -21.0311 25998.2 -03506.2 -07.6808 26233.6
 10 11 2013  05 08  -21.0312 25998.2 -03506.2 -07.6807 26233.6
 10 11 2013  05 09  -21.0311 25998.1 -03506.1 -07.6806 26233.5
 10 11 2013  05 10  -21.0307 25998.0 -03506.0 -07.6804 26233.4
 10 11 2013  05 11  -21.0307 25998.0 -03506.0 -07.6803 26233.4
 10 11 2013  05 12  -21.0306 25998.1 -03506.0 -07.6803 26233.5
 10 11 2013  05 13  -21.0307 25998.3 -03506.1 -07.6804 26233.7
 10 11 2013  05 14  -21.0308 25998.8 -03506.3 -07.6808 26234.2
