SAO LUIS EMBRACE-03 <283> 1 Min. Reported data

 DD MM YYYY  HH MM   D(Deg)  H(nT)   Z(nT)   I(Deg)   F(nT)

 10 10 2013  00 00  -21.0278 26000.3 -03489.6 -07.6442 26233.5
 10 10 2013  00 01  -21.0283 26000.3 -03489.7 -07.6445 26233.4
 10 10 2013  00 02  -21.0284 26000.2 -03489.8 -07.6448 26233.4
 10 10 2013  00 03  -21.0287 25999.9 -03489.8 -07.6447 26233.0
 10 10 2013  00 04  -21.0290 26000.2 -03490.0 -07.6451 26233.4
 10 10 2013  00 05  -21.0298 26000.9 -03490.5 -07.6460 26234.2
 10 10 2013  00 06  -21.0302 26001.1 -03490.7 -07.6463 26234.3
 10 10 2013  00 07  -21.0306 26001.5 -03490.9 -07.6467 26234.8
 10 10 2013  00 08  -21.0307 26001.7 -03491.1 -07.6471 26235.0
 10 10 2013  00 09  -21.0301 26001.2 -03490.8 -07.6466 26234.5
 10 10 2013  00 10  -21.0294 26000.3 -03490.4 -07.6459 26233.6
 10 10 2013  00 11  -21.0287 25998.9 -03489.6 -07.6447 26232.0
 10 10 2013  00 12  -21.0286 25997.8 -03489.1 -07.6438 26230.8
 10 10 2013  00 13  -21.0290 25997.2 -03488.9 -07.6436 26230.2
 10 10 2013  00 14  -21.0300 25996.8 -03489.0 -07.6439 26229.9
 10 10 2013  00 15  -21.0307 25996.6 -03489.0 -07.6441 26229.6
 10 10 2013  00 16  -21.0307 25996.6 -03489.2 -07.6444 26229.8
 10 10 2013  00 17  -21.0304 25996.7 -03489.4 -07.6447 26229.8
 10 10 2013  00 18  -21.0300 25996.7 -03489.5 -07.6449 26229.8
 10 10 2013  00 19  -21.0299 25996.4 -03489.5 -07.6451 26229.6
 10 10 2013  00 20  -21.0302 25995.8 -03489.3 -07.6449 26229.0
 10 10 2013  00 21  -21.0306 25995.2 -03489.1 -07.6447 26228.3
 10 10 2013  00 22  -21.0309 25994.7 -03489.0 -07.6445 26227.8
 10 10 2013  00 23  -21.0311 25994.4 -03489.0 -07.6445 26227.5
 10 10 2013  00 24  -21.0310 25994.4 -03489.0 -07.6447 26227.5
 10 10 2013  00 25  -21.0306 25994.5 -03489.2 -07.6450 26227.6
 10 10 2013  00 26  -21.0304 25994.7 -03489.4 -07.6455 26227.8
 10 10 2013  00 27  -21.0301 25994.8 -03489.6 -07.6458 26227.9
 10 10 2013  00 28  -21.0298 25994.7 -03489.7 -07.6460 26227.8
 10 10 2013  00 29  -21.0297 25994.1 -03489.5 -07.6458 26227.3
 10 10 2013  00 30  -21.0296 25992.6 -03488.9 -07.6449 26225.7
 10 10 2013  00 31  -21.0292 25990.8 -03488.0 -07.6435 26223.8
 10 10 2013  00 32  -21.0292 25989.6 -03487.5 -07.6427 26222.5
 10 10 2013  00 33  -21.0297 25989.0 -03487.4 -07.6427 26222.0
 10 10 2013  00 34  -21.0302 25988.9 -03487.6 -07.6431 26221.8
 10 10 2013  00 35  -21.0301 25989.0 -03487.8 -07.6436 26222.0
 10 10 2013  00 36  -21.0301 25989.4 -03488.2 -07.6443 26222.4
 10 10 2013  00 37  -21.0303 25989.8 -03488.6 -07.6451 26222.9
 10 10 2013  00 38  -21.0303 25989.8 -03488.8 -07.6455 26222.9
 10 10 2013  00 39  -21.0297 25990.1 -03489.0 -07.6458 26223.2
 10 10 2013  00 40  -21.0292 25990.6 -03489.3 -07.6464 26223.7
 10 10 2013  00 41  -21.0291 25990.9 -03489.6 -07.6470 26224.1
 10 10 2013  00 42  -21.0290 25991.2 -03489.8 -07.6473 26224.4
 10 10 2013  00 43  -21.0292 25991.2 -03490.0 -07.6477 26224.5
 10 10 2013  00 44  -21.0290 25991.0 -03489.9 -07.6476 26224.3
 10 10 2013  00 45  -21.0286 25990.6 -03489.8 -07.6473 26223.9
 10 10 2013  00 46  -21.0277 25990.5 -03489.7 -07.6472 26223.7
 10 10 2013  00 47  -21.0272 25990.4 -03489.7 -07.6473 26223.6
 10 10 2013  00 48  -21.0270 25990.5 -03489.8 -07.6475 26223.7
 10 10 2013  00 49  -21.0264 25990.3 -03489.8 -07.6476 26223.5
 10 10 2013  00 50  -21.0261 25990.0 -03489.8 -07.6475 26223.2
 10 10 2013  00 51  -21.0265 25989.4 -03489.6 -07.6473 26222.6
 10 10 2013  00 52  -21.0274 25988.9 -03489.5 -07.6472 26222.1
 10 10 2013  00 53  -21.0279 25988.6 -03489.4 -07.6472 26221.8
 10 10 2013  00 54  -21.0280 25988.5 -03489.4 -07.6471 26221.7
 10 10 2013  00 55  -21.0285 25988.5 -03489.5 -07.6474 26221.7
 10 10 2013  00 56  -21.0289 25988.4 -03489.6 -07.6477 26221.7
 10 10 2013  00 57  -21.0283 25988.4 -03489.6 -07.6477 26221.7
 10 10 2013  00 58  -21.0278 25988.4 -03489.7 -07.6478 26221.7
 10 10 2013  00 59  -21.0279 25988.4 -03489.7 -07.6479 26221.6
 10 10 2013  01 00  -21.0280 25988.1 -03489.7 -07.6479 26221.3
 10 10 2013  01 01  -21.0281 25988.0 -03489.7 -07.6479 26221.2
 10 10 2013  01 02  -21.0285 25988.0 -03489.7 -07.6481 26221.2
 10 10 2013  01 03  -21.0291 25987.7 -03489.7 -07.6481 26220.9
 10 10 2013  01 04  -21.0296 25987.1 -03489.4 -07.6477 26220.3
 10 10 2013  01 05  -21.0297 25986.7 -03489.3 -07.6474 26219.9
 10 10 2013  01 06  -21.0299 25986.6 -03489.3 -07.6474 26219.8
 10 10 2013  01 07  -21.0300 25986.4 -03489.2 -07.6474 26219.6
 10 10 2013  01 08  -21.0301 25986.1 -03489.1 -07.6472 26219.2
 10 10 2013  01 09  -21.0297 25986.3 -03489.2 -07.6473 26219.5
 10 10 2013  01 10  -21.0296 25986.7 -03489.5 -07.6478 26219.9
 10 10 2013  01 11  -21.0295 25986.7 -03489.6 -07.6480 26220.0
 10 10 2013  01 12  -21.0295 25986.5 -03489.5 -07.6480 26219.7
 10 10 2013  01 13  -21.0298 25985.6 -03489.2 -07.6475 26218.8
 10 10 2013  01 14  -21.0300 25984.1 -03488.5 -07.6464 26217.2
 10 10 2013  01 15  -21.0302 25982.7 -03487.7 -07.6453 26215.7
 10 10 2013  01 16  -21.0304 25981.5 -03487.2 -07.6445 26214.5
 10 10 2013  01 17  -21.0308 25980.7 -03486.9 -07.6441 26213.6
 10 10 2013  01 18  -21.0316 25980.2 -03486.8 -07.6440 26213.1
 10 10 2013  01 19  -21.0324 25980.1 -03487.0 -07.6444 26213.1
 10 10 2013  01 20  -21.0321 25980.1 -03487.2 -07.6448 26213.1
 10 10 2013  01 21  -21.0317 25980.1 -03487.3 -07.6450 26213.1
 10 10 2013  01 22  -21.0314 25980.2 -03487.5 -07.6454 26213.2
 10 10 2013  01 23  -21.0314 25980.3 -03487.6 -07.6457 26213.3
 10 10 2013  01 24  -21.0316 25980.5 -03487.9 -07.6463 26213.6
 10 10 2013  01 25  -21.0313 25980.5 -03488.1 -07.6466 26213.6
 10 10 2013  01 26  -21.0313 25980.4 -03488.1 -07.6467 26213.5
 10 10 2013  01 27  -21.0311 25980.4 -03488.2 -07.6469 26213.5
 10 10 2013  01 28  -21.0309 25980.6 -03488.3 -07.6471 26213.7
 10 10 2013  01 29  -21.0304 25980.4 -03488.3 -07.6472 26213.5
 10 10 2013  01 30  -21.0295 25980.1 -03488.2 -07.6470 26213.3
 10 10 2013  01 31  -21.0289 25980.0 -03488.2 -07.6471 26213.2
 10 10 2013  01 32  -21.0284 25980.0 -03488.3 -07.6472 26213.1
 10 10 2013  01 33  -21.0280 25980.2 -03488.5 -07.6476 26213.4
 10 10 2013  01 34  -21.0277 25980.3 -03488.7 -07.6480 26213.5
 10 10 2013  01 35  -21.0273 25980.5 -03488.9 -07.6484 26213.8
 10 10 2013  01 36  -21.0270 25980.9 -03489.2 -07.6489 26214.1
 10 10 2013  01 37  -21.0269 25981.4 -03489.5 -07.6496 26214.7
 10 10 2013  01 38  -21.0266 25981.9 -03489.9 -07.6501 26215.2
 10 10 2013  01 39  -21.0265 25982.3 -03490.2 -07.6506 26215.7
 10 10 2013  01 40  -21.0266 25982.8 -03490.5 -07.6511 26216.2
 10 10 2013  01 41  -21.0264 25983.2 -03490.7 -07.6516 26216.7
 10 10 2013  01 42  -21.0260 25983.5 -03490.9 -07.6518 26217.0
 10 10 2013  01 43  -21.0256 25983.6 -03490.9 -07.6519 26217.1
 10 10 2013  01 44  -21.0253 25983.4 -03490.8 -07.6517 26216.8
 10 10 2013  01 45  -21.0247 25983.1 -03490.6 -07.6514 26216.5
 10 10 2013  01 46  -21.0242 25983.0 -03490.5 -07.6513 26216.4
 10 10 2013  01 47  -21.0239 25982.8 -03490.6 -07.6514 26216.3
 10 10 2013  01 48  -21.0238 25982.6 -03490.5 -07.6513 26216.0
 10 10 2013  01 49  -21.0238 25982.5 -03490.5 -07.6513 26215.9
 10 10 2013  01 50  -21.0236 25982.7 -03490.6 -07.6515 26216.1
 10 10 2013  01 51  -21.0235 25983.0 -03490.8 -07.6519 26216.5
 10 10 2013  01 52  -21.0237 25983.5 -03491.1 -07.6524 26217.0
 10 10 2013  01 53  -21.0239 25983.9 -03491.4 -07.6529 26217.5
 10 10 2013  01 54  -21.0239 25984.2 -03491.6 -07.6533 26217.7
 10 10 2013  01 55  -21.0235 25984.3 -03491.6 -07.6533 26217.8
 10 10 2013  01 56  -21.0233 25984.2 -03491.6 -07.6532 26217.7
 10 10 2013  01 57  -21.0235 25984.1 -03491.6 -07.6532 26217.6
 10 10 2013  01 58  -21.0239 25983.8 -03491.5 -07.6531 26217.4
 10 10 2013  01 59  -21.0243 25983.6 -03491.4 -07.6529 26217.1
 10 10 2013  02 00  -21.0245 25983.5 -03491.3 -07.6528 26217.0
 10 10 2013  02 01  -21.0247 25983.5 -03491.3 -07.6528 26217.0
 10 10 2013  02 02  -21.0249 25983.7 -03491.4 -07.6530 26217.2
 10 10 2013  02 03  -21.0250 25984.2 -03491.7 -07.6534 26217.8
 10 10 2013  02 04  -21.0251 25985.1 -03492.2 -07.6541 26218.7
 10 10 2013  02 05  -21.0250 25985.9 -03492.5 -07.6548 26219.5
 10 10 2013  02 06  -21.0249 25986.6 -03492.9 -07.6553 26220.2
 10 10 2013  02 07  -21.0247 25987.1 -03493.1 -07.6556 26220.9
 10 10 2013  02 08  -21.0246 25987.6 -03493.4 -07.6560 26221.4
 10 10 2013  02 09  -21.0248 25987.9 -03493.4 -07.6561 26221.7
 10 10 2013  02 10  -21.0251 25988.1 -03493.5 -07.6562 26221.9
 10 10 2013  02 11  -21.0254 25988.4 -03493.6 -07.6563 26222.1
 10 10 2013  02 12  -21.0256 25988.7 -03493.6 -07.6563 26222.5
 10 10 2013  02 13  -21.0259 25989.0 -03493.8 -07.6565 26222.8
 10 10 2013  02 14  -21.0261 25989.3 -03493.9 -07.6566 26223.1
 10 10 2013  02 15  -21.0263 25989.6 -03493.9 -07.6567 26223.4
 10 10 2013  02 16  -21.0266 25989.7 -03493.9 -07.6566 26223.5
 10 10 2013  02 17  -21.0268 25989.8 -03493.9 -07.6565 26223.6
 10 10 2013  02 18  -21.0269 25989.8 -03493.8 -07.6563 26223.5
 10 10 2013  02 19  -21.0269 25989.7 -03493.7 -07.6562 26223.5
 10 10 2013  02 20  -21.0270 25989.8 -03493.7 -07.6561 26223.6
 10 10 2013  02 21  -21.0273 25989.9 -03493.7 -07.6561 26223.7
 10 10 2013  02 22  -21.0277 25990.0 -03493.7 -07.6561 26223.8
 10 10 2013  02 23  -21.0281 25990.3 -03493.8 -07.6562 26224.0
 10 10 2013  02 24  -21.0285 25990.6 -03493.9 -07.6563 26224.4
 10 10 2013  02 25  -21.0288 25990.9 -03494.0 -07.6565 26224.7
 10 10 2013  02 26  -21.0290 25991.1 -03494.1 -07.6566 26224.9
 10 10 2013  02 27  -21.0291 25991.3 -03494.1 -07.6566 26225.1
 10 10 2013  02 28  -21.0293 25991.5 -03494.1 -07.6566 26225.3
 10 10 2013  02 29  -21.0295 25991.7 -03494.1 -07.6565 26225.5
 10 10 2013  02 30  -21.0295 25991.8 -03494.1 -07.6565 26225.6
 10 10 2013  02 31  -21.0295 25992.0 -03494.1 -07.6564 26225.8
 10 10 2013  02 32  -21.0294 25992.1 -03494.1 -07.6564 26225.9
 10 10 2013  02 33  -21.0294 25992.2 -03494.1 -07.6563 26226.0
 10 10 2013  02 34  -21.0294 25992.3 -03494.1 -07.6563 26226.1
 10 10 2013  02 35  -21.0294 25992.6 -03494.2 -07.6564 26226.4
 10 10 2013  02 36  -21.0295 25993.0 -03494.4 -07.6567 26226.8
 10 10 2013  02 37  -21.0296 25993.3 -03494.5 -07.6568 26227.1
 10 10 2013  02 38  -21.0298 25993.4 -03494.6 -07.6569 26227.3
 10 10 2013  02 39  -21.0298 25993.6 -03494.5 -07.6568 26227.5
 10 10 2013  02 40  -21.0298 25993.7 -03494.5 -07.6568 26227.6
 10 10 2013  02 41  -21.0298 25993.7 -03494.5 -07.6568 26227.6
 10 10 2013  02 42  -21.0299 25993.6 -03494.5 -07.6566 26227.4
 10 10 2013  02 43  -21.0299 25993.4 -03494.3 -07.6564 26227.2
 10 10 2013  02 44  -21.0298 25993.4 -03494.2 -07.6562 26227.2
 10 10 2013  02 45  -21.0298 25993.4 -03494.2 -07.6562 26227.2
 10 10 2013  02 46  -21.0298 25993.6 -03494.3 -07.6564 26227.4
 10 10 2013  02 47  -21.0299 25993.8 -03494.4 -07.6566 26227.7
 10 10 2013  02 48  -21.0300 25994.2 -03494.6 -07.6569 26228.0
 10 10 2013  02 49  -21.0301 25994.5 -03494.8 -07.6570 26228.3
 10 10 2013  02 50  -21.0304 25994.7 -03494.9 -07.6573 26228.6
 10 10 2013  02 51  -21.0305 25994.8 -03494.9 -07.6573 26228.7
 10 10 2013  02 52  -21.0306 25994.7 -03494.8 -07.6571 26228.5
 10 10 2013  02 53  -21.0307 25994.4 -03494.6 -07.6568 26228.2
 10 10 2013  02 54  -21.0307 25994.0 -03494.4 -07.6565 26227.8
 10 10 2013  02 55  -21.0306 25993.7 -03494.3 -07.6562 26227.5
 10 10 2013  02 56  -21.0304 25993.5 -03494.1 -07.6559 26227.3
 10 10 2013  02 57  -21.0303 25993.5 -03494.1 -07.6560 26227.3
 10 10 2013  02 58  -21.0305 25993.6 -03494.2 -07.6561 26227.4
 10 10 2013  02 59  -21.0306 25993.8 -03494.3 -07.6563 26227.6
 10 10 2013  03 00  -21.0307 25993.9 -03494.4 -07.6565 26227.7
 10 10 2013  03 01  -21.0308 25994.0 -03494.5 -07.6565 26227.8
 10 10 2013  03 02  -21.0309 25994.0 -03494.5 -07.6566 26227.9
 10 10 2013  03 03  -21.0308 25994.1 -03494.5 -07.6566 26227.9
 10 10 2013  03 04  -21.0308 25994.2 -03494.5 -07.6566 26228.0
 10 10 2013  03 05  -21.0307 25994.3 -03494.5 -07.6566 26228.1
 10 10 2013  03 06  -21.0308 25994.5 -03494.6 -07.6567 26228.3
 10 10 2013  03 07  -21.0311 25994.8 -03494.8 -07.6570 26228.6
 10 10 2013  03 08  -21.0312 25995.1 -03494.9 -07.6572 26229.0
 10 10 2013  03 09  -21.0313 25995.4 -03495.0 -07.6573 26229.3
 10 10 2013  03 10  -21.0314 25995.6 -03495.1 -07.6574 26229.5
 10 10 2013  03 11  -21.0315 25995.7 -03495.1 -07.6574 26229.6
 10 10 2013  03 12  -21.0315 25995.7 -03495.0 -07.6573 26229.6
 10 10 2013  03 13  -21.0313 25995.6 -03494.9 -07.6570 26229.5
 10 10 2013  03 14  -21.0313 25995.6 -03494.8 -07.6569 26229.5
 10 10 2013  03 15  -21.0313 25995.7 -03494.8 -07.6568 26229.5
 10 10 2013  03 16  -21.0313 25995.6 -03494.7 -07.6566 26229.5
 10 10 2013  03 17  -21.0313 25995.5 -03494.6 -07.6565 26229.3
 10 10 2013  03 18  -21.0313 25995.3 -03494.5 -07.6563 26229.1
 10 10 2013  03 19  -21.0312 25995.2 -03494.4 -07.6561 26229.0
 10 10 2013  03 20  -21.0309 25995.1 -03494.3 -07.6560 26228.9
 10 10 2013  03 21  -21.0308 25995.0 -03494.3 -07.6558 26228.8
 10 10 2013  03 22  -21.0306 25994.7 -03494.2 -07.6557 26228.5
 10 10 2013  03 23  -21.0305 25994.6 -03494.0 -07.6555 26228.3
 10 10 2013  03 24  -21.0304 25994.3 -03493.9 -07.6553 26228.1
 10 10 2013  03 25  -21.0304 25994.1 -03493.8 -07.6552 26227.8
 10 10 2013  03 26  -21.0303 25993.9 -03493.8 -07.6550 26227.6
 10 10 2013  03 27  -21.0300 25993.8 -03493.7 -07.6550 26227.5
 10 10 2013  03 28  -21.0298 25993.9 -03493.7 -07.6549 26227.6
 10 10 2013  03 29  -21.0298 25993.9 -03493.7 -07.6550 26227.6
 10 10 2013  03 30  -21.0297 25993.9 -03493.8 -07.6551 26227.7
 10 10 2013  03 31  -21.0295 25993.9 -03493.8 -07.6552 26227.7
 10 10 2013  03 32  -21.0293 25994.0 -03493.9 -07.6552 26227.8
 10 10 2013  03 33  -21.0290 25994.2 -03494.0 -07.6554 26228.0
 10 10 2013  03 34  -21.0290 25994.4 -03494.1 -07.6556 26228.2
 10 10 2013  03 35  -21.0291 25994.6 -03494.2 -07.6558 26228.4
 10 10 2013  03 36  -21.0293 25994.9 -03494.3 -07.6560 26228.7
 10 10 2013  03 37  -21.0296 25995.1 -03494.4 -07.6562 26228.9
 10 10 2013  03 38  -21.0297 25995.1 -03494.4 -07.6562 26228.9
 10 10 2013  03 39  -21.0298 25995.1 -03494.4 -07.6561 26228.9
 10 10 2013  03 40  -21.0298 25994.9 -03494.3 -07.6559 26228.7
 10 10 2013  03 41  -21.0297 25994.7 -03494.2 -07.6557 26228.5
 10 10 2013  03 42  -21.0296 25994.3 -03494.0 -07.6554 26228.1
 10 10 2013  03 43  -21.0295 25994.1 -03493.8 -07.6552 26227.8
 10 10 2013  03 44  -21.0295 25993.8 -03493.7 -07.6550 26227.5
 10 10 2013  03 45  -21.0295 25993.5 -03493.6 -07.6548 26227.2
 10 10 2013  03 46  -21.0295 25993.3 -03493.5 -07.6546 26227.0
 10 10 2013  03 47  -21.0297 25993.1 -03493.4 -07.6546 26226.8
 10 10 2013  03 48  -21.0297 25992.8 -03493.4 -07.6546 26226.5
 10 10 2013  03 49  -21.0297 25992.6 -03493.3 -07.6544 26226.3
 10 10 2013  03 50  -21.0296 25992.4 -03493.3 -07.6544 26226.1
 10 10 2013  03 51  -21.0297 25992.4 -03493.3 -07.6545 26226.1
 10 10 2013  03 52  -21.0296 25992.4 -03493.3 -07.6545 26226.1
 10 10 2013  03 53  -21.0298 25992.4 -03493.4 -07.6546 26226.1
 10 10 2013  03 54  -21.0300 25992.5 -03493.5 -07.6549 26226.2
 10 10 2013  03 55  -21.0300 25992.4 -03493.5 -07.6549 26226.1
 10 10 2013  03 56  -21.0300 25992.3 -03493.5 -07.6549 26226.0
 10 10 2013  03 57  -21.0300 25992.2 -03493.5 -07.6549 26225.9
 10 10 2013  03 58  -21.0301 25992.0 -03493.4 -07.6549 26225.8
 10 10 2013  03 59  -21.0301 25991.9 -03493.4 -07.6549 26225.6
 10 10 2013  04 00  -21.0302 25991.7 -03493.4 -07.6549 26225.5
 10 10 2013  04 01  -21.0303 25991.6 -03493.4 -07.6549 26225.3
 10 10 2013  04 02  -21.0303 25991.3 -03493.3 -07.6548 26225.0
 10 10 2013  04 03  -21.0306 25991.1 -03493.2 -07.6547 26224.8
 10 10 2013  04 04  -21.0310 25991.0 -03493.2 -07.6548 26224.7
 10 10 2013  04 05  -21.0314 25991.1 -03493.3 -07.6549 26224.8
 10 10 2013  04 06  -21.0321 25991.3 -03493.5 -07.6552 26225.0
 10 10 2013  04 07  -21.0327 25991.5 -03493.6 -07.6554 26225.2
 10 10 2013  04 08  -21.0333 25991.7 -03493.7 -07.6557 26225.5
 10 10 2013  04 09  -21.0338 25991.9 -03493.8 -07.6558 26225.7
 10 10 2013  04 10  -21.0343 25992.0 -03493.9 -07.6559 26225.8
 10 10 2013  04 11  -21.0349 25992.1 -03493.9 -07.6559 26225.9
 10 10 2013  04 12  -21.0352 25992.3 -03493.9 -07.6559 26226.0
 10 10 2013  04 13  -21.0355 25992.4 -03494.0 -07.6559 26226.2
 10 10 2013  04 14  -21.0357 25992.7 -03494.1 -07.6561 26226.5
 10 10 2013  04 15  -21.0358 25992.9 -03494.2 -07.6562 26226.8
 10 10 2013  04 16  -21.0358 25993.0 -03494.1 -07.6561 26226.8
 10 10 2013  04 17  -21.0356 25992.9 -03494.1 -07.6560 26226.7
 10 10 2013  04 18  -21.0357 25993.0 -03494.1 -07.6560 26226.8
 10 10 2013  04 19  -21.0359 25993.1 -03494.1 -07.6560 26226.9
 10 10 2013  04 20  -21.0360 25993.1 -03494.1 -07.6560 26226.9
 10 10 2013  04 21  -21.0363 25993.3 -03494.2 -07.6562 26227.1
 10 10 2013  04 22  -21.0364 25993.4 -03494.2 -07.6562 26227.2
 10 10 2013  04 23  -21.0364 25993.2 -03494.1 -07.6560 26227.0
 10 10 2013  04 24  -21.0364 25993.1 -03494.0 -07.6558 26226.8
 10 10 2013  04 25  -21.0366 25993.0 -03493.9 -07.6557 26226.8
 10 10 2013  04 26  -21.0367 25993.0 -03494.0 -07.6558 26226.8
 10 10 2013  04 27  -21.0368 25993.2 -03494.1 -07.6559 26227.0
 10 10 2013  04 28  -21.0369 25993.4 -03494.1 -07.6561 26227.2
 10 10 2013  04 29  -21.0369 25993.5 -03494.2 -07.6562 26227.3
 10 10 2013  04 30  -21.0368 25993.6 -03494.3 -07.6563 26227.4
 10 10 2013  04 31  -21.0368 25993.5 -03494.2 -07.6562 26227.3
 10 10 2013  04 32  -21.0369 25993.5 -03494.3 -07.6563 26227.3
 10 10 2013  04 33  -21.0369 25993.4 -03494.2 -07.6562 26227.2
 10 10 2013  04 34  -21.0369 25993.4 -03494.2 -07.6561 26227.2
 10 10 2013  04 35  -21.0369 25993.2 -03494.1 -07.6561 26227.0
 10 10 2013  04 36  -21.0368 25993.0 -03494.1 -07.6560 26226.8
 10 10 2013  04 37  -21.0367 25992.9 -03494.0 -07.6558 26226.7
 10 10 2013  04 38  -21.0365 25993.0 -03494.0 -07.6559 26226.8
 10 10 2013  04 39  -21.0368 25992.9 -03494.0 -07.6560 26226.7
 10 10 2013  04 40  -21.0369 25993.0 -03494.1 -07.6561 26226.8
 10 10 2013  04 41  -21.0373 25993.0 -03494.2 -07.6562 26226.8
 10 10 2013  04 42  -21.0380 25993.1 -03494.2 -07.6563 26226.9
 10 10 2013  04 43  -21.0385 25993.0 -03494.2 -07.6564 26226.9
 10 10 2013  04 44  -21.0388 25993.2 -03494.2 -07.6563 26227.0
 10 10 2013  04 45  -21.0391 25993.1 -03494.2 -07.6563 26226.9
 10 10 2013  04 46  -21.0393 25993.0 -03494.1 -07.6561 26226.8
 10 10 2013  04 47  -21.0395 25992.8 -03494.1 -07.6560 26226.6
 10 10 2013  04 48  -21.0391 25992.9 -03494.0 -07.6559 26226.7
 10 10 2013  04 49  -21.0387 25992.9 -03494.1 -07.6560 26226.7
 10 10 2013  04 50  -21.0381 25992.9 -03494.0 -07.6559 26226.6
 10 10 2013  04 51  -21.0377 25992.9 -03494.1 -07.6560 26226.7
 10 10 2013  04 52  -21.0372 25993.0 -03494.1 -07.6561 26226.8
 10 10 2013  04 53  -21.0368 25993.0 -03494.1 -07.6561 26226.8
 10 10 2013  04 54  -21.0368 25993.0 -03494.2 -07.6562 26226.8
 10 10 2013  04 55  -21.0368 25993.3 -03494.3 -07.6564 26227.1
 10 10 2013  04 56  -21.0372 25993.7 -03494.5 -07.6567 26227.5
 10 10 2013  04 57  -21.0376 25994.1 -03494.7 -07.6571 26227.9
 10 10 2013  04 58  -21.0376 25994.1 -03494.7 -07.6571 26228.0
 10 10 2013  04 59  -21.0376 25993.9 -03494.6 -07.6570 26227.8
 10 10 2013  05 00  -21.0376 25994.0 -03494.6 -07.6568 26227.8
 10 10 2013  05 01  -21.0379 25994.2 -03494.7 -07.6569 26228.1
 10 10 2013  05 02  -21.0383 25994.6 -03494.8 -07.6571 26228.5
 10 10 2013  05 03  -21.0387 25995.2 -03495.0 -07.6574 26229.1
 10 10 2013  05 04  -21.0396 25996.1 -03495.3 -07.6578 26230.0
 10 10 2013  05 05  -21.0405 25997.0 -03495.8 -07.6585 26231.0
 10 10 2013  05 06  -21.0415 25997.9 -03496.1 -07.6589 26231.9
 10 10 2013  05 07  -21.0422 25998.8 -03496.3 -07.6592 26232.8
 10 10 2013  05 08  -21.0428 25999.8 -03496.6 -07.6596 26233.9
 10 10 2013  05 09  -21.0432 26000.8 -03496.9 -07.6598 26234.9
 10 10 2013  05 10  -21.0436 26001.7 -03497.1 -07.6601 26235.8
 10 10 2013  05 11  -21.0439 26002.4 -03497.3 -07.6602 26236.6
 10 10 2013  05 12  -21.0441 26002.9 -03497.3 -07.6601 26237.0
 10 10 2013  05 13  -21.0440 26003.1 -03497.2 -07.6599 26237.2
 10 10 2013  05 14  -21.0437 26003.2 -03497.0 -07.6594 26237.3
