SAO LUIS EMBRACE-03 <226> 1 Min. Reported data

 DD MM YYYY  HH MM   D(Deg)  H(nT)   Z(nT)   I(Deg)   F(nT)

 14 08 2013  00 00  -21.0326 26026.1 -03473.8 -07.6025 26256.9
 14 08 2013  00 01  -21.0327 26026.3 -03473.9 -07.6027 26257.2
 14 08 2013  00 02  -21.0332 26026.9 -03474.2 -07.6033 26257.7
 14 08 2013  00 03  -21.0339 26027.3 -03474.5 -07.6037 26258.2
 14 08 2013  00 04  -21.0344 26027.8 -03474.7 -07.6040 26258.7
 14 08 2013  00 05  -21.0346 26028.1 -03474.8 -07.6042 26259.0
 14 08 2013  00 06  -21.0347 26028.2 -03474.8 -07.6041 26259.1
 14 08 2013  00 07  -21.0347 26028.1 -03474.7 -07.6039 26259.0
 14 08 2013  00 08  -21.0347 26027.9 -03474.5 -07.6036 26258.8
 14 08 2013  00 09  -21.0345 26028.2 -03474.6 -07.6036 26259.1
 14 08 2013  00 10  -21.0346 26028.0 -03474.5 -07.6036 26258.9
 14 08 2013  00 11  -21.0344 26027.6 -03474.3 -07.6032 26258.4
 14 08 2013  00 12  -21.0341 26027.2 -03474.1 -07.6028 26258.0
 14 08 2013  00 13  -21.0338 26026.9 -03473.9 -07.6025 26257.7
 14 08 2013  00 14  -21.0334 26026.9 -03473.9 -07.6025 26257.7
 14 08 2013  00 15  -21.0330 26026.8 -03473.9 -07.6025 26257.6
 14 08 2013  00 16  -21.0326 26026.6 -03473.8 -07.6024 26257.4
 14 08 2013  00 17  -21.0327 26026.5 -03473.8 -07.6024 26257.3
 14 08 2013  00 18  -21.0329 26026.3 -03473.8 -07.6024 26257.1
 14 08 2013  00 19  -21.0331 26026.0 -03473.7 -07.6023 26256.8
 14 08 2013  00 20  -21.0332 26025.8 -03473.6 -07.6021 26256.5
 14 08 2013  00 21  -21.0334 26025.2 -03473.3 -07.6018 26255.9
 14 08 2013  00 22  -21.0334 26024.8 -03473.2 -07.6016 26255.5
 14 08 2013  00 23  -21.0337 26024.5 -03473.1 -07.6015 26255.2
 14 08 2013  00 24  -21.0340 26024.1 -03473.0 -07.6014 26254.8
 14 08 2013  00 25  -21.0343 26023.6 -03472.8 -07.6011 26254.3
 14 08 2013  00 26  -21.0345 26023.2 -03472.7 -07.6010 26253.9
 14 08 2013  00 27  -21.0349 26022.8 -03472.6 -07.6009 26253.5
 14 08 2013  00 28  -21.0353 26022.5 -03472.5 -07.6008 26253.1
 14 08 2013  00 29  -21.0358 26022.2 -03472.5 -07.6008 26252.9
 14 08 2013  00 30  -21.0361 26022.0 -03472.5 -07.6008 26252.7
 14 08 2013  00 31  -21.0365 26021.8 -03472.4 -07.6008 26252.4
 14 08 2013  00 32  -21.0368 26021.9 -03472.4 -07.6008 26252.5
 14 08 2013  00 33  -21.0373 26021.8 -03472.5 -07.6010 26252.5
 14 08 2013  00 34  -21.0378 26021.8 -03472.5 -07.6011 26252.5
 14 08 2013  00 35  -21.0383 26021.8 -03472.6 -07.6012 26252.5
 14 08 2013  00 36  -21.0388 26021.7 -03472.6 -07.6012 26252.3
 14 08 2013  00 37  -21.0394 26021.4 -03472.5 -07.6011 26252.1
 14 08 2013  00 38  -21.0395 26021.4 -03472.5 -07.6010 26252.1
 14 08 2013  00 39  -21.0396 26021.3 -03472.5 -07.6010 26251.9
 14 08 2013  00 40  -21.0396 26021.6 -03472.5 -07.6011 26252.2
 14 08 2013  00 41  -21.0397 26021.8 -03472.7 -07.6014 26252.5
 14 08 2013  00 42  -21.0394 26022.2 -03472.9 -07.6018 26252.9
 14 08 2013  00 43  -21.0396 26022.2 -03473.0 -07.6020 26252.9
 14 08 2013  00 44  -21.0394 26023.2 -03473.5 -07.6028 26254.0
 14 08 2013  00 45  -21.0397 26022.6 -03473.4 -07.6026 26253.4
 14 08 2013  00 46  -21.0389 26023.0 -03473.5 -07.6027 26253.8
 14 08 2013  00 47  -21.0387 26022.9 -03473.4 -07.6026 26253.7
 14 08 2013  00 48  -21.0385 26022.8 -03473.3 -07.6025 26253.6
 14 08 2013  00 49  -21.0385 26022.6 -03473.3 -07.6025 26253.4
 14 08 2013  00 50  -21.0384 26022.4 -03473.2 -07.6023 26253.2
 14 08 2013  00 51  -21.0384 26022.0 -03473.1 -07.6022 26252.8
 14 08 2013  00 52  -21.0381 26021.9 -03473.0 -07.6021 26252.6
 14 08 2013  00 53  -21.0379 26021.7 -03473.0 -07.6021 26252.5
 14 08 2013  00 54  -21.0379 26021.4 -03472.9 -07.6019 26252.1
 14 08 2013  00 55  -21.0379 26021.0 -03472.8 -07.6018 26251.7
 14 08 2013  00 56  -21.0378 26020.8 -03472.7 -07.6016 26251.5
 14 08 2013  00 57  -21.0378 26020.6 -03472.6 -07.6016 26251.3
 14 08 2013  00 58  -21.0378 26020.4 -03472.7 -07.6017 26251.2
 14 08 2013  00 59  -21.0379 26020.4 -03472.7 -07.6018 26251.1
 14 08 2013  01 00  -21.0379 26020.5 -03472.8 -07.6020 26251.2
 14 08 2013  01 01  -21.0379 26020.7 -03473.0 -07.6023 26251.5
 14 08 2013  01 02  -21.0378 26020.8 -03473.0 -07.6024 26251.6
 14 08 2013  01 03  -21.0376 26020.8 -03473.0 -07.6024 26251.5
 14 08 2013  01 04  -21.0376 26020.8 -03473.1 -07.6025 26251.5
 14 08 2013  01 05  -21.0375 26021.1 -03473.3 -07.6029 26251.9
 14 08 2013  01 06  -21.0377 26021.3 -03473.4 -07.6032 26252.1
 14 08 2013  01 07  -21.0380 26021.3 -03473.5 -07.6032 26252.1
 14 08 2013  01 08  -21.0383 26021.4 -03473.6 -07.6034 26252.2
 14 08 2013  01 09  -21.0384 26021.6 -03473.6 -07.6035 26252.4
 14 08 2013  01 10  -21.0384 26021.9 -03473.7 -07.6036 26252.7
 14 08 2013  01 11  -21.0384 26021.9 -03473.8 -07.6037 26252.8
 14 08 2013  01 12  -21.0382 26022.2 -03473.9 -07.6038 26253.1
 14 08 2013  01 13  -21.0381 26022.3 -03473.9 -07.6038 26253.1
 14 08 2013  01 14  -21.0378 26022.5 -03474.0 -07.6040 26253.3
 14 08 2013  01 15  -21.0377 26022.7 -03474.1 -07.6041 26253.6
 14 08 2013  01 16  -21.0375 26023.0 -03474.2 -07.6043 26253.9
 14 08 2013  01 17  -21.0370 26023.3 -03474.3 -07.6044 26254.2
 14 08 2013  01 18  -21.0368 26023.7 -03474.4 -07.6046 26254.6
 14 08 2013  01 19  -21.0366 26023.9 -03474.6 -07.6048 26254.9
 14 08 2013  01 20  -21.0364 26024.0 -03474.6 -07.6048 26255.0
 14 08 2013  01 21  -21.0364 26024.1 -03474.6 -07.6049 26255.1
 14 08 2013  01 22  -21.0365 26024.3 -03474.7 -07.6050 26255.3
 14 08 2013  01 23  -21.0366 26024.7 -03474.9 -07.6053 26255.7
 14 08 2013  01 24  -21.0368 26024.9 -03474.9 -07.6054 26255.9
 14 08 2013  01 25  -21.0371 26024.9 -03474.9 -07.6053 26255.9
 14 08 2013  01 26  -21.0372 26024.7 -03474.8 -07.6050 26255.7
 14 08 2013  01 27  -21.0370 26024.6 -03474.6 -07.6047 26255.5
 14 08 2013  01 28  -21.0370 26024.5 -03474.5 -07.6046 26255.4
 14 08 2013  01 29  -21.0369 26024.3 -03474.5 -07.6044 26255.2
 14 08 2013  01 30  -21.0367 26024.0 -03474.3 -07.6041 26254.9
 14 08 2013  01 31  -21.0362 26023.7 -03474.0 -07.6037 26254.5
 14 08 2013  01 32  -21.0358 26023.1 -03473.8 -07.6035 26254.0
 14 08 2013  01 33  -21.0353 26022.9 -03473.7 -07.6033 26253.8
 14 08 2013  01 34  -21.0351 26022.7 -03473.7 -07.6032 26253.5
 14 08 2013  01 35  -21.0349 26022.5 -03473.7 -07.6032 26253.4
 14 08 2013  01 36  -21.0348 26022.3 -03473.6 -07.6032 26253.1
 14 08 2013  01 37  -21.0348 26022.2 -03473.6 -07.6032 26253.0
 14 08 2013  01 38  -21.0348 26021.9 -03473.5 -07.6032 26252.8
 14 08 2013  01 39  -21.0348 26021.6 -03473.5 -07.6031 26252.4
 14 08 2013  01 40  -21.0345 26021.4 -03473.4 -07.6030 26252.2
 14 08 2013  01 41  -21.0344 26021.3 -03473.4 -07.6030 26252.1
 14 08 2013  01 42  -21.0345 26021.1 -03473.4 -07.6031 26251.9
 14 08 2013  01 43  -21.0344 26021.0 -03473.4 -07.6031 26251.8
 14 08 2013  01 44  -21.0344 26020.8 -03473.4 -07.6032 26251.6
 14 08 2013  01 45  -21.0344 26020.4 -03473.3 -07.6031 26251.2
 14 08 2013  01 46  -21.0345 26020.1 -03473.2 -07.6030 26250.9
 14 08 2013  01 47  -21.0345 26019.7 -03473.0 -07.6027 26250.5
 14 08 2013  01 48  -21.0345 26019.4 -03473.0 -07.6027 26250.2
 14 08 2013  01 49  -21.0347 26019.1 -03472.9 -07.6026 26249.9
 14 08 2013  01 50  -21.0350 26018.8 -03472.9 -07.6026 26249.6
 14 08 2013  01 51  -21.0353 26018.5 -03472.8 -07.6025 26249.3
 14 08 2013  01 52  -21.0355 26018.3 -03472.7 -07.6025 26249.0
 14 08 2013  01 53  -21.0356 26018.0 -03472.7 -07.6025 26248.7
 14 08 2013  01 54  -21.0360 26017.8 -03472.7 -07.6025 26248.6
 14 08 2013  01 55  -21.0365 26017.6 -03472.7 -07.6026 26248.3
 14 08 2013  01 56  -21.0370 26017.3 -03472.6 -07.6026 26248.0
 14 08 2013  01 57  -21.0374 26017.1 -03472.5 -07.6024 26247.8
 14 08 2013  01 58  -21.0378 26016.9 -03472.6 -07.6025 26247.7
 14 08 2013  01 59  -21.0382 26016.9 -03472.5 -07.6025 26247.6
 14 08 2013  02 00  -21.0388 26016.7 -03472.6 -07.6025 26247.5
 14 08 2013  02 01  -21.0391 26016.4 -03472.5 -07.6024 26247.2
 14 08 2013  02 02  -21.0393 26016.2 -03472.4 -07.6023 26246.9
 14 08 2013  02 03  -21.0395 26016.0 -03472.3 -07.6023 26246.7
 14 08 2013  02 04  -21.0396 26016.1 -03472.4 -07.6024 26246.8
 14 08 2013  02 05  -21.0396 26016.2 -03472.4 -07.6025 26246.9
 14 08 2013  02 06  -21.0397 26016.2 -03472.5 -07.6025 26246.9
 14 08 2013  02 07  -21.0398 26016.1 -03472.5 -07.6025 26246.9
 14 08 2013  02 08  -21.0400 26015.9 -03472.4 -07.6025 26246.7
 14 08 2013  02 09  -21.0401 26015.7 -03472.3 -07.6022 26246.4
 14 08 2013  02 10  -21.0400 26015.3 -03472.1 -07.6020 26246.0
 14 08 2013  02 11  -21.0399 26015.0 -03472.0 -07.6017 26245.6
 14 08 2013  02 12  -21.0399 26014.6 -03471.8 -07.6016 26245.3
 14 08 2013  02 13  -21.0398 26014.3 -03471.7 -07.6014 26244.9
 14 08 2013  02 14  -21.0398 26014.0 -03471.6 -07.6013 26244.6
 14 08 2013  02 15  -21.0400 26013.7 -03471.5 -07.6012 26244.3
 14 08 2013  02 16  -21.0403 26013.2 -03471.4 -07.6010 26243.8
 14 08 2013  02 17  -21.0405 26012.8 -03471.3 -07.6008 26243.4
 14 08 2013  02 18  -21.0409 26012.4 -03471.1 -07.6008 26242.9
 14 08 2013  02 19  -21.0413 26012.2 -03471.1 -07.6008 26242.7
 14 08 2013  02 20  -21.0417 26012.0 -03471.1 -07.6008 26242.6
 14 08 2013  02 21  -21.0422 26012.0 -03471.1 -07.6008 26242.5
 14 08 2013  02 22  -21.0423 26011.9 -03471.2 -07.6010 26242.4
 14 08 2013  02 23  -21.0424 26011.7 -03471.1 -07.6008 26242.3
 14 08 2013  02 24  -21.0423 26011.5 -03471.0 -07.6007 26242.1
 14 08 2013  02 25  -21.0422 26011.4 -03471.0 -07.6008 26242.0
 14 08 2013  02 26  -21.0420 26011.3 -03471.0 -07.6008 26241.9
 14 08 2013  02 27  -21.0418 26011.2 -03471.0 -07.6008 26241.7
 14 08 2013  02 28  -21.0417 26011.1 -03471.0 -07.6008 26241.7
 14 08 2013  02 29  -21.0415 26010.7 -03470.9 -07.6006 26241.3
 14 08 2013  02 30  -21.0416 26010.5 -03470.9 -07.6007 26241.0
 14 08 2013  02 31  -21.0416 26010.3 -03470.8 -07.6006 26240.8
 14 08 2013  02 32  -21.0416 26010.1 -03470.8 -07.6007 26240.7
 14 08 2013  02 33  -21.0416 26009.9 -03470.8 -07.6008 26240.5
 14 08 2013  02 34  -21.0412 26009.7 -03470.8 -07.6008 26240.3
 14 08 2013  02 35  -21.0408 26009.4 -03470.7 -07.6007 26239.9
 14 08 2013  02 36  -21.0402 26009.1 -03470.7 -07.6006 26239.6
 14 08 2013  02 37  -21.0395 26008.8 -03470.6 -07.6006 26239.3
 14 08 2013  02 38  -21.0390 26008.6 -03470.6 -07.6007 26239.1
 14 08 2013  02 39  -21.0389 26008.6 -03470.8 -07.6011 26239.2
 14 08 2013  02 40  -21.0389 26008.6 -03470.9 -07.6014 26239.1
 14 08 2013  02 41  -21.0390 26008.6 -03471.1 -07.6017 26239.2
 14 08 2013  02 42  -21.0392 26008.7 -03471.2 -07.6020 26239.4
 14 08 2013  02 43  -21.0392 26009.4 -03471.6 -07.6027 26240.0
 14 08 2013  02 44  -21.0387 26009.4 -03471.7 -07.6028 26240.0
 14 08 2013  02 45  -21.0387 26009.5 -03471.8 -07.6031 26240.2
 14 08 2013  02 46  -21.0385 26009.9 -03472.1 -07.6035 26240.6
 14 08 2013  02 47  -21.0381 26010.4 -03472.4 -07.6041 26241.2
 14 08 2013  02 48  -21.0373 26011.3 -03472.8 -07.6047 26242.1
 14 08 2013  02 49  -21.0369 26012.1 -03473.3 -07.6056 26242.9
 14 08 2013  02 50  -21.0364 26012.8 -03473.8 -07.6063 26243.7
 14 08 2013  02 51  -21.0361 26013.4 -03474.0 -07.6067 26244.4
 14 08 2013  02 52  -21.0359 26013.9 -03474.3 -07.6071 26244.9
 14 08 2013  02 53  -21.0363 26014.3 -03474.5 -07.6074 26245.3
 14 08 2013  02 54  -21.0366 26014.9 -03474.8 -07.6080 26246.0
 14 08 2013  02 55  -21.0370 26015.9 -03475.3 -07.6086 26247.0
 14 08 2013  02 56  -21.0374 26016.4 -03475.5 -07.6090 26247.5
 14 08 2013  02 57  -21.0375 26016.8 -03475.6 -07.6091 26247.9
 14 08 2013  02 58  -21.0375 26017.2 -03475.7 -07.6092 26248.4
 14 08 2013  02 59  -21.0375 26017.3 -03475.7 -07.6092 26248.5
 14 08 2013  03 00  -21.0372 26017.5 -03475.7 -07.6091 26248.6
 14 08 2013  03 01  -21.0373 26017.8 -03475.7 -07.6091 26249.0
 14 08 2013  03 02  -21.0376 26018.2 -03475.9 -07.6093 26249.4
 14 08 2013  03 03  -21.0375 26018.5 -03475.9 -07.6093 26249.7
 14 08 2013  03 04  -21.0372 26018.8 -03476.0 -07.6094 26250.0
 14 08 2013  03 05  -21.0368 26018.9 -03475.9 -07.6092 26250.0
 14 08 2013  03 06  -21.0363 26018.8 -03475.7 -07.6088 26249.9
 14 08 2013  03 07  -21.0357 26018.4 -03475.5 -07.6084 26249.5
 14 08 2013  03 08  -21.0351 26018.3 -03475.4 -07.6082 26249.3
 14 08 2013  03 09  -21.0345 26017.9 -03475.1 -07.6078 26249.0
 14 08 2013  03 10  -21.0344 26017.8 -03475.1 -07.6077 26248.9
 14 08 2013  03 11  -21.0342 26017.9 -03475.1 -07.6077 26249.0
 14 08 2013  03 12  -21.0342 26017.8 -03475.1 -07.6077 26248.9
 14 08 2013  03 13  -21.0341 26017.7 -03475.0 -07.6076 26248.7
 14 08 2013  03 14  -21.0337 26017.5 -03474.9 -07.6073 26248.5
 14 08 2013  03 15  -21.0331 26017.2 -03474.7 -07.6071 26248.2
 14 08 2013  03 16  -21.0326 26017.0 -03474.6 -07.6069 26248.0
 14 08 2013  03 17  -21.0321 26016.8 -03474.5 -07.6068 26247.8
 14 08 2013  03 18  -21.0317 26016.6 -03474.4 -07.6066 26247.6
 14 08 2013  03 19  -21.0316 26016.4 -03474.4 -07.6065 26247.4
 14 08 2013  03 20  -21.0316 26016.4 -03474.4 -07.6067 26247.3
 14 08 2013  03 21  -21.0315 26016.4 -03474.4 -07.6067 26247.4
 14 08 2013  03 22  -21.0314 26016.3 -03474.4 -07.6068 26247.2
 14 08 2013  03 23  -21.0316 26016.1 -03474.4 -07.6066 26247.1
 14 08 2013  03 24  -21.0316 26016.1 -03474.4 -07.6068 26247.1
 14 08 2013  03 25  -21.0316 26016.0 -03474.5 -07.6069 26247.0
 14 08 2013  03 26  -21.0318 26015.8 -03474.4 -07.6069 26246.8
 14 08 2013  03 27  -21.0320 26015.6 -03474.4 -07.6068 26246.6
 14 08 2013  03 28  -21.0322 26015.4 -03474.3 -07.6067 26246.4
 14 08 2013  03 29  -21.0326 26015.2 -03474.3 -07.6067 26246.2
 14 08 2013  03 30  -21.0326 26015.0 -03474.2 -07.6065 26246.0
 14 08 2013  03 31  -21.0323 26014.9 -03474.1 -07.6064 26245.8
 14 08 2013  03 32  -21.0317 26014.9 -03474.1 -07.6063 26245.8
 14 08 2013  03 33  -21.0312 26014.8 -03474.0 -07.6063 26245.8
 14 08 2013  03 34  -21.0311 26014.7 -03474.0 -07.6063 26245.6
 14 08 2013  03 35  -21.0310 26014.5 -03474.0 -07.6063 26245.4
 14 08 2013  03 36  -21.0309 26014.1 -03473.9 -07.6062 26245.0
 14 08 2013  03 37  -21.0310 26013.9 -03473.8 -07.6061 26244.8
 14 08 2013  03 38  -21.0310 26013.6 -03473.7 -07.6060 26244.5
 14 08 2013  03 39  -21.0310 26013.4 -03473.7 -07.6060 26244.3
 14 08 2013  03 40  -21.0311 26013.2 -03473.7 -07.6061 26244.1
 14 08 2013  03 41  -21.0315 26013.1 -03473.8 -07.6062 26244.0
 14 08 2013  03 42  -21.0319 26012.8 -03473.7 -07.6061 26243.8
 14 08 2013  03 43  -21.0319 26012.5 -03473.6 -07.6061 26243.4
 14 08 2013  03 44  -21.0316 26012.5 -03473.6 -07.6060 26243.4
 14 08 2013  03 45  -21.0317 26012.6 -03473.7 -07.6062 26243.5
 14 08 2013  03 46  -21.0319 26012.5 -03473.7 -07.6063 26243.5
 14 08 2013  03 47  -21.0319 26012.5 -03473.8 -07.6064 26243.4
 14 08 2013  03 48  -21.0320 26012.6 -03473.8 -07.6065 26243.5
 14 08 2013  03 49  -21.0322 26012.8 -03473.9 -07.6067 26243.7
 14 08 2013  03 50  -21.0322 26012.8 -03474.0 -07.6068 26243.7
 14 08 2013  03 51  -21.0322 26012.8 -03474.0 -07.6068 26243.8
 14 08 2013  03 52  -21.0321 26012.7 -03474.0 -07.6068 26243.7
 14 08 2013  03 53  -21.0321 26012.6 -03473.9 -07.6067 26243.6
 14 08 2013  03 54  -21.0320 26012.5 -03473.9 -07.6066 26243.4
 14 08 2013  03 55  -21.0319 26012.5 -03473.8 -07.6065 26243.5
 14 08 2013  03 56  -21.0320 26012.7 -03473.9 -07.6067 26243.6
 14 08 2013  03 57  -21.0321 26012.5 -03473.9 -07.6067 26243.5
 14 08 2013  03 58  -21.0320 26012.5 -03473.9 -07.6067 26243.5
 14 08 2013  03 59  -21.0321 26012.6 -03474.0 -07.6068 26243.6
 14 08 2013  04 00  -21.0319 26012.6 -03474.0 -07.6068 26243.6
 14 08 2013  04 01  -21.0317 26012.7 -03474.0 -07.6068 26243.6
 14 08 2013  04 02  -21.0316 26012.7 -03474.0 -07.6068 26243.7
 14 08 2013  04 03  -21.0314 26012.8 -03474.1 -07.6069 26243.8
 14 08 2013  04 04  -21.0308 26012.8 -03474.1 -07.6069 26243.8
 14 08 2013  04 05  -21.0302 26012.8 -03474.0 -07.6068 26243.7
 14 08 2013  04 06  -21.0295 26012.7 -03474.0 -07.6068 26243.7
 14 08 2013  04 07  -21.0290 26012.7 -03474.0 -07.6068 26243.7
 14 08 2013  04 08  -21.0288 26012.8 -03474.1 -07.6071 26243.8
 14 08 2013  04 09  -21.0286 26013.0 -03474.2 -07.6073 26244.0
 14 08 2013  04 10  -21.0286 26013.1 -03474.3 -07.6074 26244.1
 14 08 2013  04 11  -21.0287 26013.4 -03474.5 -07.6077 26244.4
 14 08 2013  04 12  -21.0288 26013.6 -03474.6 -07.6079 26244.6
 14 08 2013  04 13  -21.0288 26013.6 -03474.6 -07.6079 26244.6
 14 08 2013  04 14  -21.0286 26013.6 -03474.6 -07.6079 26244.6
 14 08 2013  04 15  -21.0286 26013.5 -03474.6 -07.6078 26244.5
 14 08 2013  04 16  -21.0288 26013.5 -03474.6 -07.6079 26244.6
 14 08 2013  04 17  -21.0290 26013.6 -03474.7 -07.6080 26244.7
 14 08 2013  04 18  -21.0289 26013.8 -03474.7 -07.6081 26244.8
 14 08 2013  04 19  -21.0289 26014.1 -03474.8 -07.6082 26245.1
 14 08 2013  04 20  -21.0290 26014.4 -03474.9 -07.6084 26245.4
 14 08 2013  04 21  -21.0289 26014.7 -03475.1 -07.6086 26245.8
 14 08 2013  04 22  -21.0285 26014.9 -03475.1 -07.6086 26246.0
 14 08 2013  04 23  -21.0281 26015.1 -03475.1 -07.6086 26246.2
 14 08 2013  04 24  -21.0275 26015.3 -03475.2 -07.6086 26246.3
 14 08 2013  04 25  -21.0268 26015.4 -03475.2 -07.6087 26246.5
 14 08 2013  04 26  -21.0264 26015.5 -03475.2 -07.6087 26246.6
 14 08 2013  04 27  -21.0262 26015.5 -03475.2 -07.6087 26246.6
 14 08 2013  04 28  -21.0261 26015.5 -03475.3 -07.6087 26246.6
 14 08 2013  04 29  -21.0260 26015.6 -03475.3 -07.6088 26246.7
 14 08 2013  04 30  -21.0261 26015.6 -03475.3 -07.6087 26246.6
 14 08 2013  04 31  -21.0260 26015.5 -03475.2 -07.6087 26246.6
 14 08 2013  04 32  -21.0259 26015.5 -03475.2 -07.6086 26246.6
 14 08 2013  04 33  -21.0260 26015.6 -03475.2 -07.6087 26246.7
 14 08 2013  04 34  -21.0262 26015.7 -03475.3 -07.6088 26246.8
 14 08 2013  04 35  -21.0265 26015.9 -03475.4 -07.6090 26247.0
 14 08 2013  04 36  -21.0267 26016.1 -03475.5 -07.6091 26247.2
 14 08 2013  04 37  -21.0269 26016.3 -03475.6 -07.6092 26247.4
 14 08 2013  04 38  -21.0272 26016.4 -03475.6 -07.6093 26247.6
 14 08 2013  04 39  -21.0277 26016.4 -03475.6 -07.6092 26247.5
 14 08 2013  04 40  -21.0279 26016.7 -03475.7 -07.6093 26247.8
 14 08 2013  04 41  -21.0277 26017.3 -03475.9 -07.6097 26248.5
 14 08 2013  04 42  -21.0275 26017.7 -03476.0 -07.6097 26248.8
 14 08 2013  04 43  -21.0274 26017.9 -03476.1 -07.6099 26249.1
 14 08 2013  04 44  -21.0274 26018.3 -03476.2 -07.6100 26249.5
 14 08 2013  04 45  -21.0273 26018.8 -03476.4 -07.6102 26250.0
 14 08 2013  04 46  -21.0273 26019.7 -03476.7 -07.6107 26251.0
 14 08 2013  04 47  -21.0268 26020.6 -03477.1 -07.6113 26251.9
 14 08 2013  04 48  -21.0265 26021.6 -03477.5 -07.6119 26252.9
 14 08 2013  04 49  -21.0261 26022.1 -03477.6 -07.6120 26253.5
 14 08 2013  04 50  -21.0255 26023.1 -03477.9 -07.6123 26254.5
 14 08 2013  04 51  -21.0252 26023.6 -03478.2 -07.6127 26255.0
 14 08 2013  04 52  -21.0252 26023.6 -03478.1 -07.6124 26255.0
 14 08 2013  04 53  -21.0252 26023.8 -03478.0 -07.6122 26255.2
 14 08 2013  04 54  -21.0250 26024.0 -03478.0 -07.6121 26255.4
 14 08 2013  04 55  -21.0246 26024.6 -03478.1 -07.6122 26256.0
 14 08 2013  04 56  -21.0245 26025.3 -03478.3 -07.6125 26256.7
 14 08 2013  04 57  -21.0243 26026.2 -03478.6 -07.6129 26257.7
 14 08 2013  04 58  -21.0241 26026.9 -03478.9 -07.6132 26258.4
 14 08 2013  04 59  -21.0237 26027.6 -03479.1 -07.6135 26259.1
 14 08 2013  05 00  -21.0234 26027.9 -03479.1 -07.6134 26259.4
 14 08 2013  05 01  -21.0230 26028.4 -03479.1 -07.6133 26259.9
 14 08 2013  05 02  -21.0228 26029.1 -03479.3 -07.6135 26260.6
 14 08 2013  05 03  -21.0227 26029.5 -03479.4 -07.6136 26261.0
 14 08 2013  05 04  -21.0229 26029.8 -03479.4 -07.6135 26261.4
 14 08 2013  05 05  -21.0231 26030.2 -03479.5 -07.6136 26261.8
 14 08 2013  05 06  -21.0233 26030.7 -03479.5 -07.6136 26262.2
 14 08 2013  05 07  -21.0237 26030.9 -03479.5 -07.6135 26262.4
 14 08 2013  05 08  -21.0240 26031.2 -03479.5 -07.6133 26262.7
 14 08 2013  05 09  -21.0244 26031.3 -03479.4 -07.6131 26262.8
 14 08 2013  05 10  -21.0248 26031.2 -03479.2 -07.6126 26262.6
 14 08 2013  05 11  -21.0250 26031.0 -03478.9 -07.6122 26262.5
 14 08 2013  05 12  -21.0253 26030.9 -03478.7 -07.6117 26262.3
 14 08 2013  05 13  -21.0257 26030.5 -03478.4 -07.6112 26261.9
 14 08 2013  05 14  -21.0261 26030.1 -03478.1 -07.6106 26261.4
