SAO LUIS EMBRACE-03 <222> 1 Min. Reported data

 DD MM YYYY  HH MM   D(Deg)  H(nT)   Z(nT)   I(Deg)   F(nT)

 10 08 2013  00 00  -21.0238 26034.4 -03471.8 -07.5958 26264.9
 10 08 2013  00 01  -21.0238 26034.4 -03471.8 -07.5959 26264.9
 10 08 2013  00 02  -21.0239 26034.4 -03471.8 -07.5958 26264.8
 10 08 2013  00 03  -21.0238 26034.4 -03471.8 -07.5959 26264.9
 10 08 2013  00 04  -21.0237 26034.4 -03471.8 -07.5959 26264.8
 10 08 2013  00 05  -21.0237 26034.4 -03471.8 -07.5958 26264.8
 10 08 2013  00 06  -21.0237 26034.4 -03471.8 -07.5959 26264.8
 10 08 2013  00 07  -21.0237 26034.4 -03471.8 -07.5959 26264.9
 10 08 2013  00 08  -21.0238 26034.4 -03471.9 -07.5959 26264.8
 10 08 2013  00 09  -21.0239 26034.4 -03471.9 -07.5959 26264.9
 10 08 2013  00 10  -21.0239 26034.4 -03471.9 -07.5959 26264.8
 10 08 2013  00 11  -21.0240 26034.4 -03471.9 -07.5960 26264.9
 10 08 2013  00 12  -21.0240 26034.4 -03471.9 -07.5960 26264.9
 10 08 2013  00 13  -21.0240 26034.5 -03471.9 -07.5959 26264.9
 10 08 2013  00 14  -21.0241 26034.5 -03471.9 -07.5960 26264.9
 10 08 2013  00 15  -21.0241 26034.5 -03471.9 -07.5960 26265.0
 10 08 2013  00 16  -21.0239 26034.5 -03471.9 -07.5960 26265.0
 10 08 2013  00 17  -21.0238 26034.6 -03471.9 -07.5960 26265.0
 10 08 2013  00 18  -21.0237 26034.6 -03471.9 -07.5960 26265.0
 10 08 2013  00 19  -21.0239 26034.4 -03471.9 -07.5960 26264.9
 10 08 2013  00 20  -21.0241 26034.5 -03471.9 -07.5960 26264.9
 10 08 2013  00 21  -21.0242 26034.6 -03471.9 -07.5960 26265.0
 10 08 2013  00 22  -21.0241 26034.7 -03472.0 -07.5961 26265.2
 10 08 2013  00 23  -21.0241 26034.9 -03472.0 -07.5962 26265.4
 10 08 2013  00 24  -21.0239 26035.2 -03472.2 -07.5964 26265.7
 10 08 2013  00 25  -21.0239 26035.4 -03472.3 -07.5967 26265.9
 10 08 2013  00 26  -21.0240 26035.4 -03472.3 -07.5967 26265.9
 10 08 2013  00 27  -21.0241 26035.3 -03472.3 -07.5965 26265.8
 10 08 2013  00 28  -21.0244 26035.2 -03472.2 -07.5965 26265.7
 10 08 2013  00 29  -21.0245 26035.2 -03472.2 -07.5963 26265.7
 10 08 2013  00 30  -21.0244 26035.2 -03472.2 -07.5964 26265.7
 10 08 2013  00 31  -21.0244 26035.2 -03472.1 -07.5962 26265.7
 10 08 2013  00 32  -21.0242 26035.2 -03472.1 -07.5962 26265.7
 10 08 2013  00 33  -21.0242 26035.2 -03472.1 -07.5962 26265.7
 10 08 2013  00 34  -21.0241 26035.2 -03472.1 -07.5962 26265.7
 10 08 2013  00 35  -21.0240 26035.2 -03472.1 -07.5962 26265.7
 10 08 2013  00 36  -21.0239 26035.2 -03472.1 -07.5962 26265.7
 10 08 2013  00 37  -21.0237 26035.2 -03472.1 -07.5962 26265.7
 10 08 2013  00 38  -21.0235 26035.3 -03472.1 -07.5962 26265.8
 10 08 2013  00 39  -21.0232 26035.2 -03472.1 -07.5962 26265.7
 10 08 2013  00 40  -21.0229 26035.3 -03472.1 -07.5963 26265.8
 10 08 2013  00 41  -21.0228 26035.4 -03472.2 -07.5963 26265.9
 10 08 2013  00 42  -21.0225 26035.6 -03472.3 -07.5964 26266.1
 10 08 2013  00 43  -21.0223 26035.8 -03472.4 -07.5967 26266.4
 10 08 2013  00 44  -21.0222 26036.0 -03472.5 -07.5968 26266.5
 10 08 2013  00 45  -21.0221 26035.9 -03472.4 -07.5968 26266.4
 10 08 2013  00 46  -21.0221 26035.9 -03472.4 -07.5967 26266.4
 10 08 2013  00 47  -21.0222 26035.9 -03472.5 -07.5968 26266.5
 10 08 2013  00 48  -21.0225 26035.8 -03472.4 -07.5968 26266.4
 10 08 2013  00 49  -21.0228 26035.7 -03472.4 -07.5966 26266.2
 10 08 2013  00 50  -21.0229 26035.6 -03472.3 -07.5965 26266.2
 10 08 2013  00 51  -21.0230 26035.5 -03472.2 -07.5963 26266.0
 10 08 2013  00 52  -21.0228 26035.5 -03472.1 -07.5962 26266.0
 10 08 2013  00 53  -21.0228 26035.5 -03472.1 -07.5962 26266.0
 10 08 2013  00 54  -21.0226 26035.6 -03472.2 -07.5963 26266.1
 10 08 2013  00 55  -21.0225 26035.6 -03472.2 -07.5963 26266.1
 10 08 2013  00 56  -21.0224 26035.7 -03472.2 -07.5963 26266.2
 10 08 2013  00 57  -21.0224 26035.6 -03472.2 -07.5964 26266.2
 10 08 2013  00 58  -21.0228 26035.3 -03472.1 -07.5961 26265.8
 10 08 2013  00 59  -21.0230 26035.2 -03472.0 -07.5960 26265.7
 10 08 2013  01 00  -21.0233 26035.2 -03472.0 -07.5960 26265.6
 10 08 2013  01 01  -21.0236 26035.2 -03472.0 -07.5960 26265.7
 10 08 2013  01 02  -21.0237 26035.3 -03472.1 -07.5961 26265.8
 10 08 2013  01 03  -21.0238 26035.2 -03472.0 -07.5961 26265.7
 10 08 2013  01 04  -21.0240 26035.1 -03471.9 -07.5959 26265.6
 10 08 2013  01 05  -21.0241 26035.1 -03471.9 -07.5959 26265.5
 10 08 2013  01 06  -21.0244 26034.9 -03471.8 -07.5958 26265.4
 10 08 2013  01 07  -21.0244 26034.8 -03471.8 -07.5956 26265.3
 10 08 2013  01 08  -21.0243 26034.9 -03471.8 -07.5956 26265.4
 10 08 2013  01 09  -21.0244 26034.9 -03471.8 -07.5957 26265.4
 10 08 2013  01 10  -21.0241 26035.3 -03472.0 -07.5959 26265.7
 10 08 2013  01 11  -21.0239 26035.4 -03472.1 -07.5961 26265.9
 10 08 2013  01 12  -21.0240 26035.3 -03472.0 -07.5960 26265.8
 10 08 2013  01 13  -21.0241 26035.3 -03472.0 -07.5959 26265.8
 10 08 2013  01 14  -21.0242 26035.1 -03471.9 -07.5958 26265.6
 10 08 2013  01 15  -21.0243 26034.7 -03471.7 -07.5955 26265.2
 10 08 2013  01 16  -21.0244 26034.5 -03471.6 -07.5953 26265.0
 10 08 2013  01 17  -21.0245 26034.2 -03471.4 -07.5950 26264.6
 10 08 2013  01 18  -21.0249 26033.7 -03471.2 -07.5946 26264.1
 10 08 2013  01 19  -21.0251 26033.2 -03471.0 -07.5943 26263.6
 10 08 2013  01 20  -21.0252 26032.9 -03470.8 -07.5941 26263.2
 10 08 2013  01 21  -21.0250 26033.0 -03470.9 -07.5942 26263.4
 10 08 2013  01 22  -21.0249 26033.1 -03471.0 -07.5944 26263.5
 10 08 2013  01 23  -21.0247 26033.2 -03471.1 -07.5945 26263.6
 10 08 2013  01 24  -21.0242 26033.3 -03471.1 -07.5947 26263.7
 10 08 2013  01 25  -21.0239 26033.3 -03471.2 -07.5948 26263.7
 10 08 2013  01 26  -21.0234 26033.4 -03471.3 -07.5949 26263.8
 10 08 2013  01 27  -21.0231 26033.5 -03471.3 -07.5950 26263.9
 10 08 2013  01 28  -21.0230 26033.5 -03471.4 -07.5951 26263.9
 10 08 2013  01 29  -21.0230 26033.3 -03471.3 -07.5951 26263.8
 10 08 2013  01 30  -21.0231 26033.2 -03471.2 -07.5950 26263.6
 10 08 2013  01 31  -21.0229 26033.2 -03471.3 -07.5950 26263.6
 10 08 2013  01 32  -21.0227 26033.2 -03471.3 -07.5951 26263.6
 10 08 2013  01 33  -21.0224 26033.3 -03471.4 -07.5952 26263.7
 10 08 2013  01 34  -21.0221 26033.3 -03471.4 -07.5953 26263.8
 10 08 2013  01 35  -21.0219 26033.2 -03471.4 -07.5952 26263.6
 10 08 2013  01 36  -21.0216 26033.2 -03471.4 -07.5952 26263.6
 10 08 2013  01 37  -21.0213 26033.4 -03471.5 -07.5954 26263.8
 10 08 2013  01 38  -21.0210 26033.5 -03471.6 -07.5955 26264.0
 10 08 2013  01 39  -21.0208 26033.7 -03471.7 -07.5958 26264.2
 10 08 2013  01 40  -21.0208 26033.7 -03471.7 -07.5959 26264.1
 10 08 2013  01 41  -21.0207 26033.7 -03471.7 -07.5959 26264.1
 10 08 2013  01 42  -21.0207 26033.8 -03471.8 -07.5960 26264.2
 10 08 2013  01 43  -21.0211 26033.5 -03471.7 -07.5960 26264.0
 10 08 2013  01 44  -21.0215 26033.2 -03471.6 -07.5957 26263.7
 10 08 2013  01 45  -21.0218 26032.9 -03471.5 -07.5956 26263.4
 10 08 2013  01 46  -21.0222 26032.7 -03471.3 -07.5953 26263.1
 10 08 2013  01 47  -21.0221 26032.6 -03471.3 -07.5953 26263.0
 10 08 2013  01 48  -21.0220 26032.7 -03471.3 -07.5953 26263.1
 10 08 2013  01 49  -21.0222 26032.9 -03471.4 -07.5955 26263.3
 10 08 2013  01 50  -21.0222 26033.0 -03471.5 -07.5956 26263.4
 10 08 2013  01 51  -21.0223 26032.9 -03471.5 -07.5956 26263.3
 10 08 2013  01 52  -21.0225 26032.6 -03471.4 -07.5955 26263.1
 10 08 2013  01 53  -21.0228 26032.4 -03471.3 -07.5954 26262.8
 10 08 2013  01 54  -21.0231 26032.0 -03471.2 -07.5951 26262.4
 10 08 2013  01 55  -21.0234 26031.8 -03471.1 -07.5951 26262.2
 10 08 2013  01 56  -21.0236 26031.6 -03471.1 -07.5951 26262.0
 10 08 2013  01 57  -21.0236 26031.3 -03471.0 -07.5949 26261.7
 10 08 2013  01 58  -21.0234 26031.4 -03471.0 -07.5949 26261.8
 10 08 2013  01 59  -21.0234 26031.4 -03471.1 -07.5951 26261.8
 10 08 2013  02 00  -21.0234 26031.6 -03471.2 -07.5954 26262.0
 10 08 2013  02 01  -21.0232 26031.9 -03471.4 -07.5957 26262.3
 10 08 2013  02 02  -21.0233 26032.1 -03471.5 -07.5959 26262.5
 10 08 2013  02 03  -21.0235 26032.1 -03471.6 -07.5961 26262.6
 10 08 2013  02 04  -21.0238 26031.8 -03471.5 -07.5960 26262.3
 10 08 2013  02 05  -21.0240 26031.6 -03471.4 -07.5958 26262.0
 10 08 2013  02 06  -21.0241 26031.4 -03471.3 -07.5956 26261.8
 10 08 2013  02 07  -21.0245 26031.0 -03471.1 -07.5953 26261.4
 10 08 2013  02 08  -21.0247 26030.8 -03471.0 -07.5952 26261.2
 10 08 2013  02 09  -21.0249 26030.5 -03471.0 -07.5951 26260.9
 10 08 2013  02 10  -21.0247 26030.4 -03470.9 -07.5950 26260.8
 10 08 2013  02 11  -21.0243 26030.4 -03470.9 -07.5951 26260.8
 10 08 2013  02 12  -21.0241 26030.5 -03471.0 -07.5952 26260.9
 10 08 2013  02 13  -21.0238 26030.8 -03471.2 -07.5956 26261.2
 10 08 2013  02 14  -21.0238 26031.0 -03471.4 -07.5959 26261.4
 10 08 2013  02 15  -21.0241 26031.1 -03471.5 -07.5961 26261.6
 10 08 2013  02 16  -21.0243 26031.2 -03471.6 -07.5963 26261.6
 10 08 2013  02 17  -21.0242 26031.3 -03471.6 -07.5963 26261.7
 10 08 2013  02 18  -21.0240 26031.3 -03471.7 -07.5964 26261.8
 10 08 2013  02 19  -21.0239 26031.3 -03471.7 -07.5964 26261.8
 10 08 2013  02 20  -21.0239 26031.3 -03471.7 -07.5965 26261.8
 10 08 2013  02 21  -21.0237 26031.5 -03471.8 -07.5967 26262.0
 10 08 2013  02 22  -21.0236 26031.7 -03471.9 -07.5969 26262.2
 10 08 2013  02 23  -21.0238 26031.8 -03472.0 -07.5970 26262.3
 10 08 2013  02 24  -21.0238 26031.8 -03472.0 -07.5971 26262.3
 10 08 2013  02 25  -21.0238 26031.7 -03472.0 -07.5971 26262.2
 10 08 2013  02 26  -21.0237 26031.7 -03472.0 -07.5970 26262.2
 10 08 2013  02 27  -21.0237 26031.5 -03472.0 -07.5970 26262.1
 10 08 2013  02 28  -21.0239 26031.4 -03471.9 -07.5969 26261.9
 10 08 2013  02 29  -21.0239 26031.1 -03471.8 -07.5968 26261.6
 10 08 2013  02 30  -21.0236 26031.0 -03471.8 -07.5967 26261.5
 10 08 2013  02 31  -21.0235 26031.0 -03471.8 -07.5968 26261.5
 10 08 2013  02 32  -21.0233 26031.0 -03471.8 -07.5968 26261.5
 10 08 2013  02 33  -21.0233 26031.0 -03471.9 -07.5969 26261.5
 10 08 2013  02 34  -21.0232 26031.0 -03471.9 -07.5971 26261.5
 10 08 2013  02 35  -21.0234 26030.7 -03471.9 -07.5970 26261.2
 10 08 2013  02 36  -21.0236 26030.4 -03471.7 -07.5968 26260.8
 10 08 2013  02 37  -21.0235 26029.9 -03471.5 -07.5965 26260.4
 10 08 2013  02 38  -21.0235 26029.6 -03471.4 -07.5964 26260.1
 10 08 2013  02 39  -21.0234 26029.4 -03471.3 -07.5963 26259.8
 10 08 2013  02 40  -21.0233 26029.2 -03471.3 -07.5962 26259.6
 10 08 2013  02 41  -21.0231 26029.2 -03471.3 -07.5963 26259.6
 10 08 2013  02 42  -21.0231 26029.0 -03471.3 -07.5964 26259.5
 10 08 2013  02 43  -21.0228 26029.2 -03471.4 -07.5965 26259.7
 10 08 2013  02 44  -21.0223 26029.4 -03471.6 -07.5969 26259.9
 10 08 2013  02 45  -21.0220 26029.6 -03471.8 -07.5971 26260.1
 10 08 2013  02 46  -21.0216 26030.0 -03472.0 -07.5975 26260.5
 10 08 2013  02 47  -21.0214 26030.2 -03472.2 -07.5979 26260.8
 10 08 2013  02 48  -21.0215 26030.4 -03472.4 -07.5983 26261.0
 10 08 2013  02 49  -21.0217 26030.9 -03472.7 -07.5987 26261.5
 10 08 2013  02 50  -21.0220 26030.9 -03472.7 -07.5988 26261.5
 10 08 2013  02 51  -21.0223 26030.7 -03472.7 -07.5987 26261.3
 10 08 2013  02 52  -21.0225 26030.7 -03472.6 -07.5986 26261.3
 10 08 2013  02 53  -21.0226 26030.7 -03472.6 -07.5986 26261.3
 10 08 2013  02 54  -21.0227 26030.7 -03472.6 -07.5986 26261.3
 10 08 2013  02 55  -21.0226 26030.9 -03472.7 -07.5987 26261.5
 10 08 2013  02 56  -21.0227 26030.9 -03472.7 -07.5988 26261.5
 10 08 2013  02 57  -21.0228 26031.0 -03472.8 -07.5989 26261.6
 10 08 2013  02 58  -21.0228 26031.0 -03472.8 -07.5989 26261.7
 10 08 2013  02 59  -21.0226 26031.2 -03472.9 -07.5991 26261.9
 10 08 2013  03 00  -21.0223 26031.2 -03472.9 -07.5991 26261.9
 10 08 2013  03 01  -21.0223 26031.1 -03472.8 -07.5990 26261.7
 10 08 2013  03 02  -21.0223 26031.0 -03472.8 -07.5989 26261.6
 10 08 2013  03 03  -21.0224 26030.8 -03472.7 -07.5988 26261.4
 10 08 2013  03 04  -21.0223 26030.7 -03472.6 -07.5987 26261.3
 10 08 2013  03 05  -21.0223 26030.5 -03472.6 -07.5986 26261.1
 10 08 2013  03 06  -21.0222 26030.4 -03472.5 -07.5985 26261.0
 10 08 2013  03 07  -21.0222 26030.2 -03472.5 -07.5984 26260.8
 10 08 2013  03 08  -21.0221 26030.1 -03472.4 -07.5984 26260.7
 10 08 2013  03 09  -21.0220 26029.9 -03472.3 -07.5983 26260.5
 10 08 2013  03 10  -21.0220 26029.8 -03472.3 -07.5982 26260.4
 10 08 2013  03 11  -21.0219 26029.8 -03472.3 -07.5983 26260.4
 10 08 2013  03 12  -21.0218 26029.8 -03472.3 -07.5983 26260.4
 10 08 2013  03 13  -21.0218 26029.7 -03472.3 -07.5983 26260.3
 10 08 2013  03 14  -21.0218 26029.8 -03472.4 -07.5984 26260.4
 10 08 2013  03 15  -21.0218 26029.7 -03472.4 -07.5985 26260.3
 10 08 2013  03 16  -21.0217 26029.7 -03472.4 -07.5985 26260.3
 10 08 2013  03 17  -21.0218 26029.6 -03472.4 -07.5985 26260.2
 10 08 2013  03 18  -21.0221 26029.5 -03472.4 -07.5985 26260.1
 10 08 2013  03 19  -21.0221 26029.5 -03472.4 -07.5985 26260.1
 10 08 2013  03 20  -21.0220 26029.6 -03472.4 -07.5985 26260.2
 10 08 2013  03 21  -21.0220 26029.6 -03472.4 -07.5986 26260.2
 10 08 2013  03 22  -21.0222 26029.6 -03472.5 -07.5987 26260.2
 10 08 2013  03 23  -21.0225 26029.7 -03472.6 -07.5988 26260.4
 10 08 2013  03 24  -21.0228 26029.8 -03472.6 -07.5990 26260.5
 10 08 2013  03 25  -21.0228 26029.9 -03472.6 -07.5989 26260.5
 10 08 2013  03 26  -21.0228 26030.1 -03472.7 -07.5990 26260.7
 10 08 2013  03 27  -21.0227 26030.3 -03472.8 -07.5991 26261.0
 10 08 2013  03 28  -21.0225 26030.6 -03472.9 -07.5993 26261.2
 10 08 2013  03 29  -21.0222 26030.9 -03473.0 -07.5995 26261.5
 10 08 2013  03 30  -21.0219 26031.2 -03473.2 -07.5997 26261.8
 10 08 2013  03 31  -21.0220 26031.1 -03473.2 -07.5997 26261.8
 10 08 2013  03 32  -21.0218 26031.2 -03473.2 -07.5997 26261.9
 10 08 2013  03 33  -21.0216 26031.3 -03473.2 -07.5996 26262.0
 10 08 2013  03 34  -21.0215 26031.3 -03473.2 -07.5997 26262.0
 10 08 2013  03 35  -21.0212 26031.3 -03473.1 -07.5996 26262.0
 10 08 2013  03 36  -21.0211 26031.2 -03473.1 -07.5995 26261.9
 10 08 2013  03 37  -21.0208 26031.2 -03473.0 -07.5994 26261.8
 10 08 2013  03 38  -21.0207 26031.0 -03472.9 -07.5993 26261.7
 10 08 2013  03 39  -21.0204 26031.1 -03473.0 -07.5993 26261.8
 10 08 2013  03 40  -21.0201 26031.2 -03473.1 -07.5995 26261.9
 10 08 2013  03 41  -21.0201 26031.2 -03473.1 -07.5995 26261.9
 10 08 2013  03 42  -21.0201 26031.2 -03473.1 -07.5996 26261.9
 10 08 2013  03 43  -21.0198 26031.2 -03473.1 -07.5996 26261.9
 10 08 2013  03 44  -21.0196 26031.2 -03473.1 -07.5996 26261.9
 10 08 2013  03 45  -21.0194 26031.3 -03473.2 -07.5997 26262.0
 10 08 2013  03 46  -21.0192 26031.4 -03473.3 -07.5998 26262.1
 10 08 2013  03 47  -21.0193 26031.4 -03473.3 -07.5999 26262.1
 10 08 2013  03 48  -21.0194 26031.4 -03473.3 -07.6000 26262.1
 10 08 2013  03 49  -21.0193 26031.5 -03473.3 -07.5999 26262.2
 10 08 2013  03 50  -21.0191 26031.5 -03473.3 -07.5999 26262.2
 10 08 2013  03 51  -21.0187 26031.4 -03473.3 -07.5999 26262.1
 10 08 2013  03 52  -21.0184 26031.4 -03473.3 -07.5998 26262.1
 10 08 2013  03 53  -21.0181 26031.4 -03473.3 -07.6000 26262.1
 10 08 2013  03 54  -21.0181 26031.5 -03473.4 -07.6001 26262.2
 10 08 2013  03 55  -21.0182 26031.5 -03473.4 -07.6001 26262.2
 10 08 2013  03 56  -21.0185 26031.3 -03473.4 -07.6001 26262.0
 10 08 2013  03 57  -21.0185 26031.3 -03473.3 -07.6000 26262.0
 10 08 2013  03 58  -21.0184 26031.1 -03473.2 -07.5999 26261.8
 10 08 2013  03 59  -21.0184 26030.9 -03473.2 -07.5998 26261.6
 10 08 2013  04 00  -21.0183 26031.0 -03473.2 -07.5998 26261.7
 10 08 2013  04 01  -21.0182 26031.1 -03473.3 -07.6000 26261.8
 10 08 2013  04 02  -21.0181 26031.2 -03473.4 -07.6001 26261.9
 10 08 2013  04 03  -21.0182 26031.2 -03473.4 -07.6001 26261.9
 10 08 2013  04 04  -21.0183 26031.0 -03473.3 -07.6001 26261.8
 10 08 2013  04 05  -21.0186 26030.8 -03473.2 -07.6000 26261.4
 10 08 2013  04 06  -21.0189 26030.5 -03473.1 -07.5997 26261.1
 10 08 2013  04 07  -21.0193 26030.2 -03473.0 -07.5996 26260.9
 10 08 2013  04 08  -21.0196 26030.0 -03472.9 -07.5994 26260.7
 10 08 2013  04 09  -21.0199 26030.0 -03472.9 -07.5995 26260.7
 10 08 2013  04 10  -21.0202 26029.9 -03472.9 -07.5995 26260.6
 10 08 2013  04 11  -21.0206 26030.1 -03473.0 -07.5996 26260.8
 10 08 2013  04 12  -21.0207 26030.3 -03473.1 -07.5999 26261.0
 10 08 2013  04 13  -21.0208 26030.5 -03473.2 -07.6000 26261.2
 10 08 2013  04 14  -21.0211 26030.6 -03473.3 -07.6000 26261.3
 10 08 2013  04 15  -21.0212 26030.6 -03473.3 -07.6001 26261.3
 10 08 2013  04 16  -21.0215 26030.7 -03473.3 -07.6001 26261.4
 10 08 2013  04 17  -21.0216 26030.8 -03473.3 -07.6001 26261.5
 10 08 2013  04 18  -21.0218 26031.0 -03473.4 -07.6002 26261.7
 10 08 2013  04 19  -21.0218 26031.2 -03473.5 -07.6004 26261.9
 10 08 2013  04 20  -21.0219 26031.2 -03473.5 -07.6003 26261.9
 10 08 2013  04 21  -21.0218 26031.3 -03473.5 -07.6003 26262.0
 10 08 2013  04 22  -21.0217 26031.1 -03473.4 -07.6001 26261.8
 10 08 2013  04 23  -21.0217 26031.2 -03473.3 -07.6000 26261.9
 10 08 2013  04 24  -21.0215 26031.0 -03473.2 -07.5999 26261.7
 10 08 2013  04 25  -21.0213 26031.2 -03473.3 -07.5999 26261.9
 10 08 2013  04 26  -21.0210 26031.4 -03473.4 -07.6000 26262.1
 10 08 2013  04 27  -21.0208 26031.6 -03473.5 -07.6002 26262.3
 10 08 2013  04 28  -21.0205 26032.1 -03473.7 -07.6005 26262.8
 10 08 2013  04 29  -21.0204 26032.3 -03473.8 -07.6007 26263.1
 10 08 2013  04 30  -21.0202 26032.6 -03473.9 -07.6009 26263.4
 10 08 2013  04 31  -21.0198 26032.8 -03474.0 -07.6011 26263.6
 10 08 2013  04 32  -21.0195 26033.0 -03474.0 -07.6010 26263.8
 10 08 2013  04 33  -21.0191 26033.1 -03474.1 -07.6011 26263.9
 10 08 2013  04 34  -21.0190 26032.9 -03474.0 -07.6010 26263.7
 10 08 2013  04 35  -21.0191 26032.9 -03474.0 -07.6009 26263.7
 10 08 2013  04 36  -21.0196 26032.6 -03473.8 -07.6007 26263.3
 10 08 2013  04 37  -21.0200 26032.4 -03473.7 -07.6005 26263.1
 10 08 2013  04 38  -21.0201 26032.6 -03473.8 -07.6006 26263.3
 10 08 2013  04 39  -21.0203 26032.5 -03473.7 -07.6006 26263.3
 10 08 2013  04 40  -21.0204 26032.6 -03473.8 -07.6006 26263.4
 10 08 2013  04 41  -21.0206 26032.8 -03473.8 -07.6007 26263.5
 10 08 2013  04 42  -21.0206 26032.8 -03473.9 -07.6007 26263.6
 10 08 2013  04 43  -21.0206 26032.9 -03473.9 -07.6007 26263.6
 10 08 2013  04 44  -21.0204 26033.0 -03473.9 -07.6008 26263.8
 10 08 2013  04 45  -21.0204 26033.1 -03473.9 -07.6008 26263.9
 10 08 2013  04 46  -21.0203 26033.2 -03474.0 -07.6009 26264.0
 10 08 2013  04 47  -21.0202 26033.4 -03474.0 -07.6010 26264.2
 10 08 2013  04 48  -21.0200 26033.5 -03474.1 -07.6010 26264.2
 10 08 2013  04 49  -21.0198 26033.3 -03474.0 -07.6009 26264.1
 10 08 2013  04 50  -21.0197 26033.3 -03473.9 -07.6007 26264.0
 10 08 2013  04 51  -21.0195 26033.2 -03473.9 -07.6006 26263.9
 10 08 2013  04 52  -21.0192 26033.3 -03473.9 -07.6007 26264.0
 10 08 2013  04 53  -21.0188 26033.4 -03474.0 -07.6008 26264.2
 10 08 2013  04 54  -21.0185 26033.5 -03474.0 -07.6008 26264.2
 10 08 2013  04 55  -21.0184 26033.5 -03474.0 -07.6009 26264.2
 10 08 2013  04 56  -21.0181 26033.5 -03474.0 -07.6009 26264.3
 10 08 2013  04 57  -21.0178 26033.5 -03474.0 -07.6009 26264.3
 10 08 2013  04 58  -21.0177 26033.4 -03474.0 -07.6008 26264.2
 10 08 2013  04 59  -21.0175 26033.5 -03474.0 -07.6009 26264.2
 10 08 2013  05 00  -21.0172 26033.6 -03474.1 -07.6009 26264.3
 10 08 2013  05 01  -21.0171 26033.4 -03474.0 -07.6009 26264.2
 10 08 2013  05 02  -21.0169 26033.4 -03474.0 -07.6008 26264.1
 10 08 2013  05 03  -21.0165 26033.2 -03473.9 -07.6007 26264.0
 10 08 2013  05 04  -21.0163 26033.0 -03473.8 -07.6006 26263.7
 10 08 2013  05 05  -21.0160 26032.9 -03473.8 -07.6005 26263.6
 10 08 2013  05 06  -21.0158 26032.7 -03473.7 -07.6005 26263.5
 10 08 2013  05 07  -21.0157 26032.5 -03473.7 -07.6004 26263.3
 10 08 2013  05 08  -21.0158 26032.4 -03473.6 -07.6003 26263.1
 10 08 2013  05 09  -21.0158 26032.2 -03473.6 -07.6004 26263.0
 10 08 2013  05 10  -21.0161 26032.1 -03473.6 -07.6003 26262.8
 10 08 2013  05 11  -21.0163 26032.2 -03473.7 -07.6005 26262.9
 10 08 2013  05 12  -21.0163 26032.1 -03473.7 -07.6005 26262.9
 10 08 2013  05 13  -21.0164 26032.0 -03473.6 -07.6003 26262.7
 10 08 2013  05 14  -21.0163 26031.9 -03473.5 -07.6003 26262.6
