SAO LUIS EMBRACE-03 <100> 1 Min. Reported data

 DD MM YYYY  HH MM   D(Deg)  H(nT)   Z(nT)   I(Deg)   F(nT)

 10 04 2013  00 00  -21.0367 26037.1 -03426.3 -07.4966 26261.5
 10 04 2013  00 01  -21.0367 26037.1 -03426.2 -07.4965 26261.5
 10 04 2013  00 02  -21.0366 26037.2 -03426.3 -07.4966 26261.6
 10 04 2013  00 03  -21.0367 26037.2 -03426.3 -07.4967 26261.7
 10 04 2013  00 04  -21.0369 26037.3 -03426.3 -07.4966 26261.7
 10 04 2013  00 05  -21.0369 26037.2 -03426.3 -07.4966 26261.7
 10 04 2013  00 06  -21.0371 26037.2 -03426.3 -07.4965 26261.7
 10 04 2013  00 07  -21.0370 26037.1 -03426.2 -07.4965 26261.5
 10 04 2013  00 08  -21.0371 26037.0 -03426.2 -07.4964 26261.4
 10 04 2013  00 09  -21.0370 26036.9 -03426.1 -07.4963 26261.4
 10 04 2013  00 10  -21.0370 26036.9 -03426.1 -07.4963 26261.3
 10 04 2013  00 11  -21.0371 26036.8 -03426.1 -07.4963 26261.2
 10 04 2013  00 12  -21.0371 26036.8 -03426.1 -07.4962 26261.2
 10 04 2013  00 13  -21.0372 26036.7 -03426.1 -07.4962 26261.2
 10 04 2013  00 14  -21.0373 26036.7 -03426.1 -07.4962 26261.1
 10 04 2013  00 15  -21.0373 26036.7 -03426.0 -07.4962 26261.1
 10 04 2013  00 16  -21.0373 26036.7 -03426.0 -07.4962 26261.1
 10 04 2013  00 17  -21.0374 26036.7 -03426.1 -07.4962 26261.2
 10 04 2013  00 18  -21.0375 26036.7 -03426.1 -07.4963 26261.2
 10 04 2013  00 19  -21.0376 26036.8 -03426.1 -07.4963 26261.2
 10 04 2013  00 20  -21.0376 26036.7 -03426.1 -07.4963 26261.1
 10 04 2013  00 21  -21.0376 26036.8 -03426.1 -07.4964 26261.2
 10 04 2013  00 22  -21.0377 26036.9 -03426.2 -07.4965 26261.3
 10 04 2013  00 23  -21.0377 26037.0 -03426.2 -07.4965 26261.5
 10 04 2013  00 24  -21.0376 26037.1 -03426.3 -07.4966 26261.5
 10 04 2013  00 25  -21.0376 26037.1 -03426.3 -07.4966 26261.6
 10 04 2013  00 26  -21.0376 26037.1 -03426.3 -07.4967 26261.6
 10 04 2013  00 27  -21.0375 26037.1 -03426.3 -07.4966 26261.6
 10 04 2013  00 28  -21.0374 26037.1 -03426.3 -07.4966 26261.6
 10 04 2013  00 29  -21.0374 26037.1 -03426.3 -07.4965 26261.6
 10 04 2013  00 30  -21.0373 26037.1 -03426.3 -07.4965 26261.6
 10 04 2013  00 31  -21.0373 26037.1 -03426.3 -07.4966 26261.6
 10 04 2013  00 32  -21.0373 26037.1 -03426.3 -07.4966 26261.6
 10 04 2013  00 33  -21.0374 26037.2 -03426.3 -07.4966 26261.6
 10 04 2013  00 34  -21.0374 26037.2 -03426.3 -07.4966 26261.6
 10 04 2013  00 35  -21.0374 26037.1 -03426.3 -07.4966 26261.6
 10 04 2013  00 36  -21.0375 26037.1 -03426.3 -07.4966 26261.6
 10 04 2013  00 37  -21.0375 26037.1 -03426.2 -07.4965 26261.5
 10 04 2013  00 38  -21.0375 26037.1 -03426.2 -07.4965 26261.5
 10 04 2013  00 39  -21.0375 26037.0 -03426.2 -07.4965 26261.5
 10 04 2013  00 40  -21.0374 26037.0 -03426.2 -07.4964 26261.5
 10 04 2013  00 41  -21.0374 26037.0 -03426.2 -07.4964 26261.5
 10 04 2013  00 42  -21.0375 26037.1 -03426.2 -07.4964 26261.5
 10 04 2013  00 43  -21.0374 26037.1 -03426.2 -07.4965 26261.5
 10 04 2013  00 44  -21.0374 26037.1 -03426.2 -07.4965 26261.6
 10 04 2013  00 45  -21.0374 26037.1 -03426.2 -07.4965 26261.6
 10 04 2013  00 46  -21.0373 26037.2 -03426.3 -07.4965 26261.6
 10 04 2013  00 47  -21.0373 26037.3 -03426.3 -07.4966 26261.7
 10 04 2013  00 48  -21.0372 26037.3 -03426.3 -07.4966 26261.8
 10 04 2013  00 49  -21.0371 26037.4 -03426.3 -07.4966 26261.9
 10 04 2013  00 50  -21.0370 26037.4 -03426.3 -07.4966 26261.9
 10 04 2013  00 51  -21.0368 26037.4 -03426.3 -07.4966 26261.9
 10 04 2013  00 52  -21.0367 26037.4 -03426.3 -07.4966 26261.9
 10 04 2013  00 53  -21.0367 26037.4 -03426.3 -07.4965 26261.8
 10 04 2013  00 54  -21.0368 26037.4 -03426.3 -07.4966 26261.8
 10 04 2013  00 55  -21.0369 26037.3 -03426.3 -07.4965 26261.8
 10 04 2013  00 56  -21.0370 26037.3 -03426.3 -07.4965 26261.8
 10 04 2013  00 57  -21.0370 26037.2 -03426.2 -07.4964 26261.7
 10 04 2013  00 58  -21.0370 26037.1 -03426.2 -07.4964 26261.6
 10 04 2013  00 59  -21.0370 26037.0 -03426.1 -07.4963 26261.5
 10 04 2013  01 00  -21.0369 26036.9 -03426.1 -07.4962 26261.4
 10 04 2013  01 01  -21.0368 26036.9 -03426.0 -07.4961 26261.4
 10 04 2013  01 02  -21.0373 26036.7 -03426.0 -07.4961 26261.2
 10 04 2013  01 03  -21.0369 26036.7 -03426.0 -07.4961 26261.2
 10 04 2013  01 04  -21.0368 26036.8 -03426.0 -07.4961 26261.2
 10 04 2013  01 05  -21.0367 26036.9 -03426.1 -07.4963 26261.4
 10 04 2013  01 06  -21.0366 26037.0 -03426.2 -07.4963 26261.5
 10 04 2013  01 07  -21.0365 26037.1 -03426.2 -07.4964 26261.6
 10 04 2013  01 08  -21.0365 26037.2 -03426.3 -07.4965 26261.6
 10 04 2013  01 09  -21.0364 26037.2 -03426.3 -07.4966 26261.7
 10 04 2013  01 10  -21.0362 26037.3 -03426.3 -07.4966 26261.7
 10 04 2013  01 11  -21.0362 26037.3 -03426.3 -07.4966 26261.7
 10 04 2013  01 12  -21.0361 26037.3 -03426.3 -07.4966 26261.8
 10 04 2013  01 13  -21.0361 26037.3 -03426.3 -07.4966 26261.8
 10 04 2013  01 14  -21.0360 26037.3 -03426.3 -07.4966 26261.7
 10 04 2013  01 15  -21.0360 26037.2 -03426.3 -07.4966 26261.7
 10 04 2013  01 16  -21.0360 26037.1 -03426.2 -07.4965 26261.6
 10 04 2013  01 17  -21.0360 26037.0 -03426.2 -07.4965 26261.5
 10 04 2013  01 18  -21.0360 26036.9 -03426.2 -07.4964 26261.4
 10 04 2013  01 19  -21.0361 26036.8 -03426.1 -07.4963 26261.3
 10 04 2013  01 20  -21.0361 26036.7 -03426.1 -07.4963 26261.1
 10 04 2013  01 21  -21.0360 26036.6 -03426.1 -07.4963 26261.0
 10 04 2013  01 22  -21.0360 26036.5 -03426.0 -07.4962 26260.9
 10 04 2013  01 23  -21.0359 26036.4 -03426.0 -07.4962 26260.8
 10 04 2013  01 24  -21.0359 26036.3 -03426.0 -07.4962 26260.8
 10 04 2013  01 25  -21.0358 26036.3 -03426.0 -07.4962 26260.7
 10 04 2013  01 26  -21.0356 26036.3 -03426.0 -07.4962 26260.7
 10 04 2013  01 27  -21.0354 26036.1 -03426.0 -07.4963 26260.5
 10 04 2013  01 28  -21.0359 26036.1 -03426.0 -07.4963 26260.5
 10 04 2013  01 29  -21.0357 26036.1 -03426.0 -07.4963 26260.5
 10 04 2013  01 30  -21.0358 26036.1 -03426.0 -07.4963 26260.5
 10 04 2013  01 31  -21.0357 26036.0 -03426.0 -07.4964 26260.4
 10 04 2013  01 32  -21.0358 26036.0 -03426.1 -07.4964 26260.4
 10 04 2013  01 33  -21.0358 26035.9 -03426.1 -07.4964 26260.4
 10 04 2013  01 34  -21.0359 26035.9 -03426.1 -07.4965 26260.3
 10 04 2013  01 35  -21.0360 26035.8 -03426.1 -07.4965 26260.2
 10 04 2013  01 36  -21.0361 26035.7 -03426.1 -07.4965 26260.1
 10 04 2013  01 37  -21.0361 26035.7 -03426.1 -07.4965 26260.1
 10 04 2013  01 38  -21.0362 26035.7 -03426.1 -07.4966 26260.1
 10 04 2013  01 39  -21.0362 26035.7 -03426.1 -07.4966 26260.1
 10 04 2013  01 40  -21.0362 26035.6 -03426.1 -07.4966 26260.1
 10 04 2013  01 41  -21.0361 26035.6 -03426.1 -07.4966 26260.0
 10 04 2013  01 42  -21.0360 26035.6 -03426.1 -07.4966 26260.0
 10 04 2013  01 43  -21.0359 26035.5 -03426.1 -07.4966 26260.0
 10 04 2013  01 44  -21.0359 26035.5 -03426.1 -07.4967 26260.0
 10 04 2013  01 45  -21.0358 26035.5 -03426.1 -07.4967 26260.0
 10 04 2013  01 46  -21.0358 26035.5 -03426.2 -07.4968 26260.0
 10 04 2013  01 47  -21.0357 26035.5 -03426.2 -07.4969 26260.0
 10 04 2013  01 48  -21.0357 26035.6 -03426.2 -07.4970 26260.0
 10 04 2013  01 49  -21.0357 26035.5 -03426.3 -07.4970 26260.0
 10 04 2013  01 50  -21.0356 26035.6 -03426.3 -07.4970 26260.0
 10 04 2013  01 51  -21.0356 26035.6 -03426.4 -07.4972 26260.1
 10 04 2013  01 52  -21.0356 26035.7 -03426.4 -07.4972 26260.2
 10 04 2013  01 53  -21.0356 26035.7 -03426.4 -07.4973 26260.2
 10 04 2013  01 54  -21.0356 26035.8 -03426.5 -07.4974 26260.3
 10 04 2013  01 55  -21.0355 26035.9 -03426.5 -07.4974 26260.4
 10 04 2013  01 56  -21.0355 26036.0 -03426.6 -07.4975 26260.5
 10 04 2013  01 57  -21.0355 26036.0 -03426.6 -07.4976 26260.5
 10 04 2013  01 58  -21.0355 26036.0 -03426.6 -07.4976 26260.5
 10 04 2013  01 59  -21.0355 26036.1 -03426.6 -07.4976 26260.6
 10 04 2013  02 00  -21.0354 26036.1 -03426.6 -07.4976 26260.6
 10 04 2013  02 01  -21.0353 26036.0 -03426.6 -07.4976 26260.6
 10 04 2013  02 02  -21.0353 26036.0 -03426.6 -07.4976 26260.5
 10 04 2013  02 03  -21.0353 26036.0 -03426.6 -07.4976 26260.5
 10 04 2013  02 04  -21.0353 26036.0 -03426.6 -07.4976 26260.5
 10 04 2013  02 05  -21.0352 26036.0 -03426.6 -07.4976 26260.5
 10 04 2013  02 06  -21.0351 26036.0 -03426.6 -07.4976 26260.5
 10 04 2013  02 07  -21.0351 26036.0 -03426.6 -07.4976 26260.5
 10 04 2013  02 08  -21.0350 26036.0 -03426.6 -07.4977 26260.6
 10 04 2013  02 09  -21.0349 26036.0 -03426.7 -07.4977 26260.6
 10 04 2013  02 10  -21.0349 26036.1 -03426.7 -07.4978 26260.7
 10 04 2013  02 11  -21.0349 26036.3 -03426.8 -07.4979 26260.8
 10 04 2013  02 12  -21.0348 26036.4 -03426.9 -07.4980 26261.0
 10 04 2013  02 13  -21.0347 26036.5 -03426.9 -07.4981 26261.0
 10 04 2013  02 14  -21.0347 26036.6 -03426.9 -07.4981 26261.1
 10 04 2013  02 15  -21.0346 26036.7 -03427.0 -07.4983 26261.3
 10 04 2013  02 16  -21.0346 26036.8 -03427.0 -07.4983 26261.4
 10 04 2013  02 17  -21.0345 26036.9 -03427.1 -07.4983 26261.4
 10 04 2013  02 18  -21.0344 26037.0 -03427.1 -07.4984 26261.5
 10 04 2013  02 19  -21.0342 26037.0 -03427.1 -07.4984 26261.6
 10 04 2013  02 20  -21.0341 26037.1 -03427.1 -07.4984 26261.6
 10 04 2013  02 21  -21.0340 26037.1 -03427.1 -07.4984 26261.6
 10 04 2013  02 22  -21.0339 26037.1 -03427.1 -07.4984 26261.6
 10 04 2013  02 23  -21.0339 26037.0 -03427.1 -07.4984 26261.6
 10 04 2013  02 24  -21.0338 26037.0 -03427.1 -07.4984 26261.6
 10 04 2013  02 25  -21.0338 26036.9 -03427.1 -07.4984 26261.5
 10 04 2013  02 26  -21.0338 26036.9 -03427.1 -07.4984 26261.5
 10 04 2013  02 27  -21.0338 26036.9 -03427.1 -07.4984 26261.5
 10 04 2013  02 28  -21.0338 26036.9 -03427.1 -07.4985 26261.5
 10 04 2013  02 29  -21.0338 26036.9 -03427.1 -07.4985 26261.5
 10 04 2013  02 30  -21.0337 26036.8 -03427.1 -07.4985 26261.4
 10 04 2013  02 31  -21.0337 26036.9 -03427.2 -07.4985 26261.4
 10 04 2013  02 32  -21.0336 26036.8 -03427.1 -07.4986 26261.3
 10 04 2013  02 33  -21.0335 26036.7 -03427.1 -07.4986 26261.3
 10 04 2013  02 34  -21.0335 26036.7 -03427.2 -07.4986 26261.2
 10 04 2013  02 35  -21.0335 26036.6 -03427.1 -07.4986 26261.1
 10 04 2013  02 36  -21.0336 26036.4 -03427.1 -07.4986 26261.0
 10 04 2013  02 37  -21.0336 26036.4 -03427.1 -07.4986 26261.0
 10 04 2013  02 38  -21.0336 26036.3 -03427.1 -07.4987 26260.9
 10 04 2013  02 39  -21.0335 26036.2 -03427.2 -07.4987 26260.8
 10 04 2013  02 40  -21.0334 26036.2 -03427.2 -07.4988 26260.8
 10 04 2013  02 41  -21.0333 26036.2 -03427.2 -07.4989 26260.8
 10 04 2013  02 42  -21.0332 26036.1 -03427.3 -07.4990 26260.7
 10 04 2013  02 43  -21.0331 26036.1 -03427.3 -07.4991 26260.7
 10 04 2013  02 44  -21.0330 26036.1 -03427.4 -07.4992 26260.7
 10 04 2013  02 45  -21.0329 26036.0 -03427.5 -07.4994 26260.7
 10 04 2013  02 46  -21.0329 26036.1 -03427.5 -07.4996 26260.7
 10 04 2013  02 47  -21.0329 26036.2 -03427.6 -07.4997 26260.8
 10 04 2013  02 48  -21.0329 26036.2 -03427.7 -07.4999 26260.9
 10 04 2013  02 49  -21.0329 26036.3 -03427.8 -07.5001 26261.0
 10 04 2013  02 50  -21.0329 26036.4 -03427.9 -07.5003 26261.0
 10 04 2013  02 51  -21.0330 26036.4 -03427.9 -07.5004 26261.1
 10 04 2013  02 52  -21.0329 26036.5 -03428.0 -07.5006 26261.2
 10 04 2013  02 53  -21.0328 26036.6 -03428.2 -07.5008 26261.3
 10 04 2013  02 54  -21.0328 26036.9 -03428.3 -07.5011 26261.6
 10 04 2013  02 55  -21.0328 26037.1 -03428.5 -07.5014 26261.8
 10 04 2013  02 56  -21.0329 26037.3 -03428.6 -07.5016 26262.1
 10 04 2013  02 57  -21.0329 26037.6 -03428.8 -07.5019 26262.4
 10 04 2013  02 58  -21.0329 26037.9 -03429.0 -07.5022 26262.7
 10 04 2013  02 59  -21.0329 26038.3 -03429.2 -07.5025 26263.1
 10 04 2013  03 00  -21.0329 26038.6 -03429.3 -07.5027 26263.4
 10 04 2013  03 01  -21.0329 26038.9 -03429.4 -07.5029 26263.8
 10 04 2013  03 02  -21.0329 26039.2 -03429.6 -07.5031 26264.1
 10 04 2013  03 03  -21.0328 26039.4 -03429.6 -07.5032 26264.3
 10 04 2013  03 04  -21.0328 26039.6 -03429.7 -07.5032 26264.5
 10 04 2013  03 05  -21.0328 26039.7 -03429.7 -07.5032 26264.6
 10 04 2013  03 06  -21.0329 26039.7 -03429.6 -07.5031 26264.6
 10 04 2013  03 07  -21.0330 26039.7 -03429.6 -07.5029 26264.6
 10 04 2013  03 08  -21.0330 26039.6 -03429.4 -07.5027 26264.4
 10 04 2013  03 09  -21.0332 26039.4 -03429.3 -07.5025 26264.3
 10 04 2013  03 10  -21.0332 26039.2 -03429.1 -07.5021 26264.0
 10 04 2013  03 11  -21.0332 26039.0 -03428.9 -07.5018 26263.8
 10 04 2013  03 12  -21.0332 26038.9 -03428.8 -07.5016 26263.6
 10 04 2013  03 13  -21.0331 26038.8 -03428.8 -07.5015 26263.6
 10 04 2013  03 14  -21.0331 26038.8 -03428.7 -07.5014 26263.5
 10 04 2013  03 15  -21.0329 26038.8 -03428.8 -07.5015 26263.6
 10 04 2013  03 16  -21.0328 26038.9 -03428.8 -07.5015 26263.7
 10 04 2013  03 17  -21.0327 26039.0 -03428.8 -07.5016 26263.8
 10 04 2013  03 18  -21.0325 26039.0 -03428.9 -07.5017 26263.8
 10 04 2013  03 19  -21.0324 26039.1 -03428.9 -07.5017 26263.9
 10 04 2013  03 20  -21.0323 26039.1 -03428.9 -07.5017 26263.9
 10 04 2013  03 21  -21.0322 26039.1 -03428.9 -07.5017 26263.9
 10 04 2013  03 22  -21.0321 26039.1 -03428.9 -07.5016 26263.9
 10 04 2013  03 23  -21.0321 26039.1 -03428.9 -07.5016 26263.9
 10 04 2013  03 24  -21.0321 26039.0 -03428.9 -07.5016 26263.8
 10 04 2013  03 25  -21.0320 26039.0 -03428.8 -07.5016 26263.7
 10 04 2013  03 26  -21.0320 26038.9 -03428.8 -07.5016 26263.7
 10 04 2013  03 27  -21.0319 26038.9 -03428.8 -07.5016 26263.7
 10 04 2013  03 28  -21.0319 26038.8 -03428.8 -07.5016 26263.6
 10 04 2013  03 29  -21.0320 26038.8 -03428.8 -07.5016 26263.6
 10 04 2013  03 30  -21.0321 26038.8 -03428.9 -07.5017 26263.6
 10 04 2013  03 31  -21.0321 26038.8 -03428.9 -07.5017 26263.6
 10 04 2013  03 32  -21.0321 26038.8 -03428.9 -07.5017 26263.6
 10 04 2013  03 33  -21.0321 26038.9 -03428.9 -07.5018 26263.7
 10 04 2013  03 34  -21.0321 26038.9 -03428.9 -07.5018 26263.7
 10 04 2013  03 35  -21.0321 26038.9 -03428.9 -07.5018 26263.7
 10 04 2013  03 36  -21.0321 26038.9 -03428.9 -07.5018 26263.7
 10 04 2013  03 37  -21.0321 26038.9 -03429.0 -07.5019 26263.7
 10 04 2013  03 38  -21.0321 26038.9 -03429.0 -07.5019 26263.7
 10 04 2013  03 39  -21.0321 26039.0 -03429.0 -07.5020 26263.8
 10 04 2013  03 40  -21.0322 26038.9 -03429.0 -07.5019 26263.7
 10 04 2013  03 41  -21.0322 26038.9 -03429.0 -07.5020 26263.7
 10 04 2013  03 42  -21.0323 26038.9 -03429.0 -07.5019 26263.7
 10 04 2013  03 43  -21.0323 26038.8 -03429.0 -07.5019 26263.6
 10 04 2013  03 44  -21.0324 26038.8 -03429.0 -07.5019 26263.6
 10 04 2013  03 45  -21.0324 26038.7 -03428.9 -07.5019 26263.5
 10 04 2013  03 46  -21.0325 26038.6 -03428.9 -07.5018 26263.4
 10 04 2013  03 47  -21.0325 26038.6 -03428.9 -07.5018 26263.4
 10 04 2013  03 48  -21.0325 26038.6 -03428.9 -07.5018 26263.4
 10 04 2013  03 49  -21.0324 26038.9 -03429.0 -07.5021 26263.7
 10 04 2013  03 50  -21.0324 26039.2 -03429.2 -07.5023 26264.0
 10 04 2013  03 51  -21.0325 26039.3 -03429.3 -07.5025 26264.2
 10 04 2013  03 52  -21.0323 26039.6 -03429.4 -07.5027 26264.5
 10 04 2013  03 53  -21.0323 26039.8 -03429.5 -07.5028 26264.7
 10 04 2013  03 54  -21.0321 26040.0 -03429.6 -07.5029 26264.9
 10 04 2013  03 55  -21.0321 26040.3 -03429.7 -07.5030 26265.2
 10 04 2013  03 56  -21.0320 26040.5 -03429.7 -07.5030 26265.4
 10 04 2013  03 57  -21.0318 26040.5 -03429.7 -07.5031 26265.4
 10 04 2013  03 58  -21.0316 26040.6 -03429.7 -07.5030 26265.5
 10 04 2013  03 59  -21.0316 26040.6 -03429.7 -07.5030 26265.5
 10 04 2013  04 00  -21.0314 26040.7 -03429.7 -07.5030 26265.6
 10 04 2013  04 01  -21.0314 26040.7 -03429.7 -07.5029 26265.6
 10 04 2013  04 02  -21.0313 26040.6 -03429.6 -07.5028 26265.4
 10 04 2013  04 03  -21.0313 26040.4 -03429.5 -07.5026 26265.2
 10 04 2013  04 04  -21.0313 26040.2 -03429.3 -07.5023 26265.0
 10 04 2013  04 05  -21.0314 26039.8 -03429.2 -07.5021 26264.6
 10 04 2013  04 06  -21.0315 26039.6 -03429.1 -07.5019 26264.5
 10 04 2013  04 07  -21.0317 26039.4 -03428.9 -07.5016 26264.1
 10 04 2013  04 08  -21.0319 26039.0 -03428.8 -07.5014 26263.8
 10 04 2013  04 09  -21.0319 26038.9 -03428.7 -07.5013 26263.7
 10 04 2013  04 10  -21.0320 26039.0 -03428.7 -07.5014 26263.8
 10 04 2013  04 11  -21.0322 26039.0 -03428.8 -07.5014 26263.8
 10 04 2013  04 12  -21.0324 26039.1 -03428.8 -07.5016 26263.9
 10 04 2013  04 13  -21.0326 26039.1 -03428.9 -07.5016 26263.9
 10 04 2013  04 14  -21.0327 26039.0 -03428.8 -07.5016 26263.8
 10 04 2013  04 15  -21.0326 26039.1 -03428.8 -07.5015 26263.8
 10 04 2013  04 16  -21.0325 26039.2 -03428.8 -07.5015 26264.0
 10 04 2013  04 17  -21.0325 26039.3 -03428.8 -07.5015 26264.1
 10 04 2013  04 18  -21.0325 26039.3 -03428.9 -07.5015 26264.1
 10 04 2013  04 19  -21.0325 26039.3 -03428.9 -07.5016 26264.1
 10 04 2013  04 20  -21.0324 26039.3 -03428.9 -07.5016 26264.1
 10 04 2013  04 21  -21.0321 26039.4 -03428.9 -07.5016 26264.2
 10 04 2013  04 22  -21.0319 26039.6 -03429.0 -07.5017 26264.4
 10 04 2013  04 23  -21.0316 26039.6 -03429.0 -07.5017 26264.4
 10 04 2013  04 24  -21.0314 26039.4 -03428.9 -07.5015 26264.2
 10 04 2013  04 25  -21.0311 26039.3 -03428.8 -07.5015 26264.1
 10 04 2013  04 26  -21.0309 26039.2 -03428.8 -07.5013 26264.0
 10 04 2013  04 27  -21.0305 26039.2 -03428.7 -07.5013 26263.9
 10 04 2013  04 28  -21.0304 26039.1 -03428.7 -07.5012 26263.9
 10 04 2013  04 29  -21.0303 26039.0 -03428.7 -07.5012 26263.7
 10 04 2013  04 30  -21.0301 26038.8 -03428.6 -07.5012 26263.6
 10 04 2013  04 31  -21.0300 26038.7 -03428.6 -07.5011 26263.5
 10 04 2013  04 32  -21.0297 26038.7 -03428.6 -07.5011 26263.4
 10 04 2013  04 33  -21.0295 26038.6 -03428.6 -07.5011 26263.3
 10 04 2013  04 34  -21.0292 26038.5 -03428.6 -07.5011 26263.3
 10 04 2013  04 35  -21.0289 26038.6 -03428.6 -07.5013 26263.4
 10 04 2013  04 36  -21.0287 26038.7 -03428.7 -07.5013 26263.4
 10 04 2013  04 37  -21.0284 26038.8 -03428.7 -07.5015 26263.5
 10 04 2013  04 38  -21.0282 26038.8 -03428.9 -07.5017 26263.6
 10 04 2013  04 39  -21.0280 26038.8 -03428.9 -07.5017 26263.6
 10 04 2013  04 40  -21.0278 26038.7 -03428.8 -07.5016 26263.5
 10 04 2013  04 41  -21.0276 26038.7 -03428.8 -07.5017 26263.5
 10 04 2013  04 42  -21.0275 26038.7 -03428.8 -07.5017 26263.5
 10 04 2013  04 43  -21.0273 26038.7 -03428.8 -07.5017 26263.4
 10 04 2013  04 44  -21.0271 26038.7 -03428.8 -07.5017 26263.5
 10 04 2013  04 45  -21.0270 26039.0 -03429.0 -07.5019 26263.8
 10 04 2013  04 46  -21.0266 26039.5 -03429.2 -07.5023 26264.3
 10 04 2013  04 47  -21.0260 26039.9 -03429.5 -07.5027 26264.8
 10 04 2013  04 48  -21.0255 26040.3 -03429.7 -07.5030 26265.1
 10 04 2013  04 49  -21.0251 26040.4 -03429.8 -07.5032 26265.3
 10 04 2013  04 50  -21.0248 26040.6 -03429.8 -07.5032 26265.5
 10 04 2013  04 51  -21.0245 26040.6 -03429.8 -07.5032 26265.5
 10 04 2013  04 52  -21.0242 26040.6 -03429.8 -07.5032 26265.5
 10 04 2013  04 53  -21.0240 26040.6 -03429.7 -07.5031 26265.5
 10 04 2013  04 54  -21.0238 26040.4 -03429.7 -07.5030 26265.3
 10 04 2013  04 55  -21.0237 26040.4 -03429.6 -07.5029 26265.3
 10 04 2013  04 56  -21.0238 26040.3 -03429.6 -07.5028 26265.2
 10 04 2013  04 57  -21.0238 26040.2 -03429.5 -07.5027 26265.0
 10 04 2013  04 58  -21.0236 26040.1 -03429.5 -07.5026 26265.0
 10 04 2013  04 59  -21.0236 26040.1 -03429.4 -07.5025 26264.9
 10 04 2013  05 00  -21.0237 26040.1 -03429.4 -07.5025 26264.9
 10 04 2013  05 01  -21.0237 26040.0 -03429.4 -07.5025 26264.8
 10 04 2013  05 02  -21.0238 26040.0 -03429.4 -07.5026 26264.9
 10 04 2013  05 03  -21.0238 26040.1 -03429.5 -07.5026 26265.0
 10 04 2013  05 04  -21.0238 26040.2 -03429.5 -07.5026 26265.0
 10 04 2013  05 05  -21.0238 26040.2 -03429.5 -07.5027 26265.1
 10 04 2013  05 06  -21.0237 26040.3 -03429.5 -07.5026 26265.1
 10 04 2013  05 07  -21.0236 26040.1 -03429.4 -07.5025 26265.0
 10 04 2013  05 08  -21.0236 26039.8 -03429.3 -07.5023 26264.7
 10 04 2013  05 09  -21.0236 26039.5 -03429.1 -07.5021 26264.3
 10 04 2013  05 10  -21.0240 26039.6 -03429.1 -07.5020 26264.4
 10 04 2013  05 11  -21.0243 26040.4 -03429.5 -07.5026 26265.2
 10 04 2013  05 12  -21.0235 26040.9 -03429.7 -07.5030 26265.8
 10 04 2013  05 13  -21.0226 26041.1 -03429.9 -07.5032 26266.0
 10 04 2013  05 14  -21.0223 26041.7 -03430.2 -07.5038 26266.7
