SAO LUIS EMBRACE-03 <287> 1 Min. Reported data

 DD MM YYYY  HH MM   D(Deg)  H(nT)   Z(nT)   I(Deg)   F(nT)

 14 10 2013  00 00  -21.0078 26026.5 -03494.0 -07.6461 26260.0
 14 10 2013  00 01  -21.0078 26026.5 -03494.0 -07.6461 26260.0
 14 10 2013  00 02  -21.0077 26026.5 -03494.0 -07.6461 26260.0
 14 10 2013  00 03  -21.0077 26026.4 -03494.0 -07.6462 26259.9
 14 10 2013  00 04  -21.0077 26026.5 -03494.0 -07.6462 26260.0
 14 10 2013  00 05  -21.0076 26026.5 -03494.1 -07.6463 26260.0
 14 10 2013  00 06  -21.0076 26026.4 -03494.1 -07.6463 26259.9
 14 10 2013  00 07  -21.0077 26026.4 -03494.1 -07.6463 26259.9
 14 10 2013  00 08  -21.0076 26026.4 -03494.1 -07.6463 26259.9
 14 10 2013  00 09  -21.0074 26026.5 -03494.1 -07.6462 26260.0
 14 10 2013  00 10  -21.0074 26026.4 -03494.1 -07.6463 26259.9
 14 10 2013  00 11  -21.0073 26026.4 -03494.1 -07.6464 26259.9
 14 10 2013  00 12  -21.0073 26026.4 -03494.1 -07.6464 26259.9
 14 10 2013  00 13  -21.0074 26026.4 -03494.1 -07.6464 26259.9
 14 10 2013  00 14  -21.0072 26026.4 -03494.1 -07.6464 26259.9
 14 10 2013  00 15  -21.0072 26026.4 -03494.2 -07.6465 26259.9
 14 10 2013  00 16  -21.0071 26026.4 -03494.1 -07.6464 26259.9
 14 10 2013  00 17  -21.0069 26026.3 -03494.1 -07.6464 26259.8
 14 10 2013  00 18  -21.0070 26026.3 -03494.1 -07.6465 26259.8
 14 10 2013  00 19  -21.0069 26026.3 -03494.1 -07.6465 26259.8
 14 10 2013  00 20  -21.0069 26026.2 -03494.1 -07.6464 26259.7
 14 10 2013  00 21  -21.0068 26026.1 -03494.1 -07.6464 26259.6
 14 10 2013  00 22  -21.0068 26026.0 -03494.1 -07.6464 26259.5
 14 10 2013  00 23  -21.0068 26025.9 -03494.0 -07.6463 26259.4
 14 10 2013  00 24  -21.0067 26025.8 -03494.0 -07.6463 26259.3
 14 10 2013  00 25  -21.0065 26025.8 -03494.0 -07.6463 26259.2
 14 10 2013  00 26  -21.0065 26025.7 -03494.0 -07.6463 26259.2
 14 10 2013  00 27  -21.0065 26025.8 -03494.0 -07.6464 26259.3
 14 10 2013  00 28  -21.0064 26025.7 -03494.0 -07.6464 26259.2
 14 10 2013  00 29  -21.0062 26025.6 -03494.0 -07.6463 26259.1
 14 10 2013  00 30  -21.0060 26025.6 -03494.0 -07.6464 26259.1
 14 10 2013  00 31  -21.0059 26025.6 -03494.0 -07.6464 26259.1
 14 10 2013  00 32  -21.0060 26025.5 -03494.0 -07.6465 26259.0
 14 10 2013  00 33  -21.0059 26025.6 -03494.1 -07.6466 26259.1
 14 10 2013  00 34  -21.0059 26025.6 -03494.1 -07.6466 26259.1
 14 10 2013  00 35  -21.0057 26025.5 -03494.1 -07.6466 26259.0
 14 10 2013  00 36  -21.0056 26025.5 -03494.1 -07.6466 26259.0
 14 10 2013  00 37  -21.0055 26025.5 -03494.1 -07.6466 26259.0
 14 10 2013  00 38  -21.0056 26025.4 -03494.1 -07.6466 26258.9
 14 10 2013  00 39  -21.0056 26025.4 -03494.1 -07.6467 26258.9
 14 10 2013  00 40  -21.0055 26025.4 -03494.1 -07.6467 26258.9
 14 10 2013  00 41  -21.0055 26025.4 -03494.1 -07.6467 26258.9
 14 10 2013  00 42  -21.0054 26025.3 -03494.1 -07.6466 26258.8
 14 10 2013  00 43  -21.0054 26025.2 -03494.1 -07.6466 26258.7
 14 10 2013  00 44  -21.0055 26025.1 -03494.1 -07.6466 26258.7
 14 10 2013  00 45  -21.0056 26025.1 -03494.1 -07.6467 26258.6
 14 10 2013  00 46  -21.0056 26025.1 -03494.1 -07.6467 26258.6
 14 10 2013  00 47  -21.0057 26025.1 -03494.1 -07.6467 26258.6
 14 10 2013  00 48  -21.0057 26025.0 -03494.1 -07.6467 26258.5
 14 10 2013  00 49  -21.0058 26025.0 -03494.1 -07.6467 26258.6
 14 10 2013  00 50  -21.0058 26025.0 -03494.1 -07.6468 26258.5
 14 10 2013  00 51  -21.0059 26025.1 -03494.2 -07.6469 26258.7
 14 10 2013  00 52  -21.0060 26025.1 -03494.2 -07.6470 26258.7
 14 10 2013  00 53  -21.0061 26025.2 -03494.2 -07.6470 26258.7
 14 10 2013  00 54  -21.0061 26025.2 -03494.3 -07.6471 26258.7
 14 10 2013  00 55  -21.0062 26025.2 -03494.3 -07.6472 26258.7
 14 10 2013  00 56  -21.0062 26025.1 -03494.3 -07.6472 26258.7
 14 10 2013  00 57  -21.0061 26025.0 -03494.3 -07.6471 26258.6
 14 10 2013  00 58  -21.0061 26025.0 -03494.3 -07.6471 26258.5
 14 10 2013  00 59  -21.0062 26025.0 -03494.3 -07.6472 26258.5
 14 10 2013  01 00  -21.0062 26024.9 -03494.3 -07.6472 26258.4
 14 10 2013  01 01  -21.0061 26024.9 -03494.3 -07.6472 26258.4
 14 10 2013  01 02  -21.0061 26024.9 -03494.4 -07.6473 26258.5
 14 10 2013  01 03  -21.0059 26024.8 -03494.3 -07.6473 26258.4
 14 10 2013  01 04  -21.0058 26024.8 -03494.4 -07.6474 26258.4
 14 10 2013  01 05  -21.0058 26024.8 -03494.4 -07.6474 26258.3
 14 10 2013  01 06  -21.0057 26024.8 -03494.4 -07.6475 26258.3
 14 10 2013  01 07  -21.0057 26024.8 -03494.5 -07.6476 26258.3
 14 10 2013  01 08  -21.0058 26024.8 -03494.5 -07.6477 26258.3
 14 10 2013  01 09  -21.0060 26024.8 -03494.6 -07.6478 26258.4
 14 10 2013  01 10  -21.0062 26024.8 -03494.6 -07.6479 26258.3
 14 10 2013  01 11  -21.0062 26024.7 -03494.6 -07.6479 26258.3
 14 10 2013  01 12  -21.0062 26024.7 -03494.6 -07.6479 26258.2
 14 10 2013  01 13  -21.0061 26024.6 -03494.6 -07.6479 26258.2
 14 10 2013  01 14  -21.0061 26024.5 -03494.6 -07.6479 26258.1
 14 10 2013  01 15  -21.0061 26024.5 -03494.6 -07.6479 26258.0
 14 10 2013  01 16  -21.0061 26024.5 -03494.5 -07.6479 26258.0
 14 10 2013  01 17  -21.0062 26024.4 -03494.6 -07.6479 26258.0
 14 10 2013  01 18  -21.0061 26024.3 -03494.5 -07.6478 26257.8
 14 10 2013  01 19  -21.0062 26024.2 -03494.5 -07.6478 26257.8
 14 10 2013  01 20  -21.0063 26024.3 -03494.5 -07.6479 26257.8
 14 10 2013  01 21  -21.0063 26024.2 -03494.5 -07.6479 26257.7
 14 10 2013  01 22  -21.0065 26024.1 -03494.5 -07.6479 26257.7
 14 10 2013  01 23  -21.0064 26024.0 -03494.5 -07.6478 26257.6
 14 10 2013  01 24  -21.0063 26024.0 -03494.5 -07.6478 26257.5
 14 10 2013  01 25  -21.0063 26023.9 -03494.5 -07.6478 26257.5
 14 10 2013  01 26  -21.0064 26023.9 -03494.5 -07.6480 26257.5
 14 10 2013  01 27  -21.0065 26023.9 -03494.6 -07.6481 26257.5
 14 10 2013  01 28  -21.0068 26023.9 -03494.6 -07.6482 26257.5
 14 10 2013  01 29  -21.0069 26024.0 -03494.7 -07.6483 26257.6
 14 10 2013  01 30  -21.0071 26024.0 -03494.7 -07.6483 26257.6
 14 10 2013  01 31  -21.0073 26023.9 -03494.7 -07.6483 26257.5
 14 10 2013  01 32  -21.0075 26023.9 -03494.7 -07.6484 26257.5
 14 10 2013  01 33  -21.0075 26023.8 -03494.7 -07.6483 26257.4
 14 10 2013  01 34  -21.0076 26023.7 -03494.6 -07.6483 26257.3
 14 10 2013  01 35  -21.0076 26023.6 -03494.6 -07.6483 26257.2
 14 10 2013  01 36  -21.0077 26023.5 -03494.6 -07.6483 26257.1
 14 10 2013  01 37  -21.0079 26023.5 -03494.6 -07.6483 26257.1
 14 10 2013  01 38  -21.0080 26023.5 -03494.7 -07.6484 26257.1
 14 10 2013  01 39  -21.0083 26023.5 -03494.7 -07.6486 26257.1
 14 10 2013  01 40  -21.0086 26023.6 -03494.8 -07.6487 26257.2
 14 10 2013  01 41  -21.0089 26023.6 -03494.9 -07.6488 26257.2
 14 10 2013  01 42  -21.0090 26023.6 -03494.8 -07.6488 26257.2
 14 10 2013  01 43  -21.0090 26023.6 -03494.8 -07.6487 26257.2
 14 10 2013  01 44  -21.0090 26023.4 -03494.8 -07.6486 26257.1
 14 10 2013  01 45  -21.0089 26023.3 -03494.7 -07.6486 26256.9
 14 10 2013  01 46  -21.0088 26023.2 -03494.7 -07.6486 26256.8
 14 10 2013  01 47  -21.0088 26023.1 -03494.7 -07.6485 26256.7
 14 10 2013  01 48  -21.0088 26023.1 -03494.7 -07.6485 26256.7
 14 10 2013  01 49  -21.0088 26023.0 -03494.7 -07.6486 26256.6
 14 10 2013  01 50  -21.0090 26023.0 -03494.7 -07.6485 26256.6
 14 10 2013  01 51  -21.0090 26022.9 -03494.7 -07.6486 26256.5
 14 10 2013  01 52  -21.0091 26022.9 -03494.7 -07.6487 26256.5
 14 10 2013  01 53  -21.0092 26022.8 -03494.7 -07.6488 26256.4
 14 10 2013  01 54  -21.0093 26022.8 -03494.8 -07.6488 26256.4
 14 10 2013  01 55  -21.0094 26022.7 -03494.8 -07.6489 26256.3
 14 10 2013  01 56  -21.0096 26022.7 -03494.8 -07.6489 26256.3
 14 10 2013  01 57  -21.0096 26022.6 -03494.8 -07.6490 26256.2
 14 10 2013  01 58  -21.0097 26022.5 -03494.8 -07.6490 26256.1
 14 10 2013  01 59  -21.0097 26022.3 -03494.8 -07.6490 26256.0
 14 10 2013  02 00  -21.0097 26022.3 -03494.8 -07.6491 26255.9
 14 10 2013  02 01  -21.0099 26022.2 -03494.8 -07.6492 26255.9
 14 10 2013  02 02  -21.0100 26022.2 -03494.9 -07.6493 26255.9
 14 10 2013  02 03  -21.0102 26022.2 -03494.9 -07.6494 26255.9
 14 10 2013  02 04  -21.0104 26022.2 -03495.0 -07.6495 26255.9
 14 10 2013  02 05  -21.0105 26022.2 -03495.0 -07.6496 26255.9
 14 10 2013  02 06  -21.0106 26022.1 -03495.0 -07.6496 26255.7
 14 10 2013  02 07  -21.0104 26022.0 -03495.0 -07.6496 26255.6
 14 10 2013  02 08  -21.0102 26022.0 -03495.0 -07.6496 26255.6
 14 10 2013  02 09  -21.0100 26022.0 -03495.1 -07.6498 26255.7
 14 10 2013  02 10  -21.0101 26022.2 -03495.3 -07.6501 26255.9
 14 10 2013  02 11  -21.0104 26022.2 -03495.4 -07.6503 26255.9
 14 10 2013  02 12  -21.0107 26022.2 -03495.5 -07.6505 26256.0
 14 10 2013  02 13  -21.0109 26022.4 -03495.6 -07.6508 26256.2
 14 10 2013  02 14  -21.0110 26022.3 -03495.6 -07.6508 26256.1
 14 10 2013  02 15  -21.0112 26022.2 -03495.6 -07.6507 26255.9
 14 10 2013  02 16  -21.0111 26022.0 -03495.5 -07.6507 26255.7
 14 10 2013  02 17  -21.0109 26021.9 -03495.5 -07.6508 26255.6
 14 10 2013  02 18  -21.0109 26021.7 -03495.5 -07.6507 26255.4
 14 10 2013  02 19  -21.0109 26021.7 -03495.5 -07.6508 26255.4
 14 10 2013  02 20  -21.0109 26021.7 -03495.6 -07.6510 26255.4
 14 10 2013  02 21  -21.0109 26021.5 -03495.6 -07.6510 26255.3
 14 10 2013  02 22  -21.0108 26021.5 -03495.6 -07.6511 26255.2
 14 10 2013  02 23  -21.0108 26021.3 -03495.6 -07.6511 26255.0
 14 10 2013  02 24  -21.0108 26021.2 -03495.7 -07.6512 26255.0
 14 10 2013  02 25  -21.0107 26021.3 -03495.7 -07.6514 26255.0
 14 10 2013  02 26  -21.0107 26021.2 -03495.8 -07.6515 26255.0
 14 10 2013  02 27  -21.0109 26021.2 -03495.9 -07.6517 26255.0
 14 10 2013  02 28  -21.0110 26021.3 -03496.0 -07.6519 26255.1
 14 10 2013  02 29  -21.0111 26021.1 -03496.0 -07.6519 26254.9
 14 10 2013  02 30  -21.0113 26021.1 -03496.0 -07.6520 26254.9
 14 10 2013  02 31  -21.0113 26021.1 -03496.0 -07.6521 26254.9
 14 10 2013  02 32  -21.0115 26021.0 -03496.1 -07.6522 26254.8
 14 10 2013  02 33  -21.0117 26020.8 -03496.0 -07.6521 26254.6
 14 10 2013  02 34  -21.0119 26020.7 -03496.0 -07.6521 26254.5
 14 10 2013  02 35  -21.0121 26020.7 -03496.1 -07.6523 26254.5
 14 10 2013  02 36  -21.0123 26020.6 -03496.1 -07.6523 26254.4
 14 10 2013  02 37  -21.0122 26020.5 -03496.1 -07.6524 26254.3
 14 10 2013  02 38  -21.0123 26020.5 -03496.1 -07.6524 26254.3
 14 10 2013  02 39  -21.0126 26020.4 -03496.2 -07.6525 26254.2
 14 10 2013  02 40  -21.0127 26020.3 -03496.2 -07.6526 26254.2
 14 10 2013  02 41  -21.0130 26020.3 -03496.2 -07.6526 26254.1
 14 10 2013  02 42  -21.0131 26020.3 -03496.2 -07.6527 26254.1
 14 10 2013  02 43  -21.0133 26020.2 -03496.2 -07.6528 26254.0
 14 10 2013  02 44  -21.0135 26020.2 -03496.2 -07.6527 26254.0
 14 10 2013  02 45  -21.0137 26020.2 -03496.3 -07.6528 26254.0
 14 10 2013  02 46  -21.0139 26020.1 -03496.3 -07.6528 26254.0
 14 10 2013  02 47  -21.0141 26020.1 -03496.2 -07.6528 26254.0
 14 10 2013  02 48  -21.0142 26020.1 -03496.2 -07.6527 26253.9
 14 10 2013  02 49  -21.0144 26020.0 -03496.2 -07.6527 26253.8
 14 10 2013  02 50  -21.0146 26020.0 -03496.2 -07.6527 26253.8
 14 10 2013  02 51  -21.0148 26020.0 -03496.2 -07.6527 26253.8
 14 10 2013  02 52  -21.0148 26020.0 -03496.1 -07.6526 26253.8
 14 10 2013  02 53  -21.0146 26020.1 -03496.2 -07.6527 26253.9
 14 10 2013  02 54  -21.0147 26020.0 -03496.1 -07.6526 26253.8
 14 10 2013  02 55  -21.0150 26020.2 -03496.2 -07.6527 26254.0
 14 10 2013  02 56  -21.0152 26020.2 -03496.2 -07.6528 26254.1
 14 10 2013  02 57  -21.0154 26020.2 -03496.2 -07.6527 26254.0
 14 10 2013  02 58  -21.0154 26020.3 -03496.2 -07.6527 26254.1
 14 10 2013  02 59  -21.0154 26020.4 -03496.3 -07.6528 26254.2
 14 10 2013  03 00  -21.0154 26020.4 -03496.2 -07.6526 26254.2
 14 10 2013  03 01  -21.0155 26020.4 -03496.2 -07.6527 26254.3
 14 10 2013  03 02  -21.0154 26020.5 -03496.3 -07.6527 26254.4
 14 10 2013  03 03  -21.0155 26020.5 -03496.2 -07.6526 26254.3
 14 10 2013  03 04  -21.0154 26020.5 -03496.2 -07.6526 26254.4
 14 10 2013  03 05  -21.0155 26020.6 -03496.2 -07.6526 26254.4
 14 10 2013  03 06  -21.0157 26020.5 -03496.2 -07.6526 26254.4
 14 10 2013  03 07  -21.0158 26020.5 -03496.1 -07.6524 26254.3
 14 10 2013  03 08  -21.0159 26020.5 -03496.1 -07.6523 26254.3
 14 10 2013  03 09  -21.0161 26020.4 -03496.0 -07.6523 26254.3
 14 10 2013  03 10  -21.0163 26020.4 -03496.0 -07.6522 26254.2
 14 10 2013  03 11  -21.0166 26020.3 -03495.9 -07.6521 26254.1
 14 10 2013  03 12  -21.0168 26020.3 -03495.9 -07.6520 26254.1
 14 10 2013  03 13  -21.0169 26020.1 -03495.8 -07.6518 26253.9
 14 10 2013  03 14  -21.0170 26020.0 -03495.6 -07.6516 26253.7
 14 10 2013  03 15  -21.0169 26019.8 -03495.5 -07.6514 26253.6
 14 10 2013  03 16  -21.0166 26019.8 -03495.5 -07.6512 26253.5
 14 10 2013  03 17  -21.0163 26019.7 -03495.4 -07.6511 26253.4
 14 10 2013  03 18  -21.0159 26019.6 -03495.3 -07.6510 26253.3
 14 10 2013  03 19  -21.0157 26019.6 -03495.3 -07.6510 26253.3
 14 10 2013  03 20  -21.0157 26019.6 -03495.4 -07.6510 26253.3
 14 10 2013  03 21  -21.0157 26019.5 -03495.3 -07.6510 26253.3
 14 10 2013  03 22  -21.0156 26019.6 -03495.3 -07.6510 26253.3
 14 10 2013  03 23  -21.0157 26019.6 -03495.4 -07.6511 26253.3
 14 10 2013  03 24  -21.0159 26019.6 -03495.4 -07.6511 26253.3
 14 10 2013  03 25  -21.0161 26019.6 -03495.4 -07.6512 26253.4
 14 10 2013  03 26  -21.0164 26019.6 -03495.4 -07.6511 26253.3
 14 10 2013  03 27  -21.0165 26019.6 -03495.4 -07.6510 26253.3
 14 10 2013  03 28  -21.0165 26019.6 -03495.4 -07.6510 26253.3
 14 10 2013  03 29  -21.0165 26019.7 -03495.3 -07.6510 26253.4
 14 10 2013  03 30  -21.0163 26019.7 -03495.3 -07.6509 26253.4
 14 10 2013  03 31  -21.0163 26019.7 -03495.3 -07.6509 26253.4
 14 10 2013  03 32  -21.0163 26019.7 -03495.3 -07.6509 26253.5
 14 10 2013  03 33  -21.0162 26019.8 -03495.3 -07.6509 26253.5
 14 10 2013  03 34  -21.0162 26019.8 -03495.3 -07.6508 26253.5
 14 10 2013  03 35  -21.0163 26019.7 -03495.3 -07.6508 26253.4
 14 10 2013  03 36  -21.0164 26019.7 -03495.3 -07.6508 26253.4
 14 10 2013  03 37  -21.0164 26019.8 -03495.3 -07.6508 26253.5
 14 10 2013  03 38  -21.0165 26019.8 -03495.3 -07.6507 26253.5
 14 10 2013  03 39  -21.0166 26019.8 -03495.3 -07.6508 26253.6
 14 10 2013  03 40  -21.0167 26020.0 -03495.3 -07.6508 26253.7
 14 10 2013  03 41  -21.0167 26020.1 -03495.3 -07.6508 26253.8
 14 10 2013  03 42  -21.0168 26020.2 -03495.4 -07.6509 26253.9
 14 10 2013  03 43  -21.0169 26020.3 -03495.4 -07.6509 26254.0
 14 10 2013  03 44  -21.0169 26020.4 -03495.4 -07.6509 26254.1
 14 10 2013  03 45  -21.0170 26020.5 -03495.4 -07.6510 26254.2
 14 10 2013  03 46  -21.0171 26020.5 -03495.4 -07.6509 26254.2
 14 10 2013  03 47  -21.0170 26020.6 -03495.4 -07.6509 26254.3
 14 10 2013  03 48  -21.0169 26020.6 -03495.4 -07.6508 26254.3
 14 10 2013  03 49  -21.0170 26020.5 -03495.4 -07.6508 26254.2
 14 10 2013  03 50  -21.0169 26020.7 -03495.4 -07.6508 26254.4
 14 10 2013  03 51  -21.0168 26020.6 -03495.4 -07.6508 26254.3
 14 10 2013  03 52  -21.0165 26020.6 -03495.3 -07.6507 26254.3
 14 10 2013  03 53  -21.0163 26020.5 -03495.3 -07.6506 26254.2
 14 10 2013  03 54  -21.0159 26020.4 -03495.2 -07.6504 26254.1
 14 10 2013  03 55  -21.0157 26020.2 -03495.1 -07.6503 26253.9
 14 10 2013  03 56  -21.0154 26020.0 -03495.0 -07.6502 26253.7
 14 10 2013  03 57  -21.0150 26020.0 -03495.0 -07.6502 26253.7
 14 10 2013  03 58  -21.0148 26019.9 -03495.0 -07.6502 26253.5
 14 10 2013  03 59  -21.0146 26019.8 -03495.0 -07.6503 26253.5
 14 10 2013  04 00  -21.0143 26020.0 -03495.2 -07.6505 26253.7
 14 10 2013  04 01  -21.0142 26020.0 -03495.2 -07.6506 26253.7
 14 10 2013  04 02  -21.0140 26020.0 -03495.3 -07.6508 26253.7
 14 10 2013  04 03  -21.0136 26020.0 -03495.3 -07.6509 26253.8
 14 10 2013  04 04  -21.0133 26020.1 -03495.4 -07.6509 26253.8
 14 10 2013  04 05  -21.0129 26020.2 -03495.5 -07.6511 26253.9
 14 10 2013  04 06  -21.0126 26020.3 -03495.6 -07.6513 26254.1
 14 10 2013  04 07  -21.0125 26020.4 -03495.7 -07.6515 26254.2
 14 10 2013  04 08  -21.0127 26020.6 -03495.8 -07.6517 26254.3
 14 10 2013  04 09  -21.0128 26020.6 -03495.9 -07.6519 26254.4
 14 10 2013  04 10  -21.0126 26020.7 -03496.0 -07.6520 26254.5
 14 10 2013  04 11  -21.0127 26020.8 -03496.0 -07.6521 26254.6
 14 10 2013  04 12  -21.0126 26021.0 -03496.1 -07.6522 26254.8
 14 10 2013  04 13  -21.0126 26021.0 -03496.2 -07.6524 26254.9
 14 10 2013  04 14  -21.0122 26021.2 -03496.2 -07.6524 26255.0
 14 10 2013  04 15  -21.0122 26021.2 -03496.3 -07.6525 26255.0
 14 10 2013  04 16  -21.0122 26021.1 -03496.2 -07.6524 26254.9
 14 10 2013  04 17  -21.0120 26021.3 -03496.2 -07.6525 26255.1
 14 10 2013  04 18  -21.0122 26021.1 -03496.2 -07.6525 26254.9
 14 10 2013  04 19  -21.0119 26020.9 -03496.1 -07.6523 26254.8
 14 10 2013  04 20  -21.0117 26021.1 -03496.2 -07.6524 26254.9
 14 10 2013  04 21  -21.0118 26020.9 -03496.1 -07.6522 26254.7
 14 10 2013  04 22  -21.0117 26021.0 -03496.2 -07.6524 26254.8
 14 10 2013  04 23  -21.0120 26020.9 -03496.2 -07.6524 26254.7
 14 10 2013  04 24  -21.0123 26020.8 -03496.1 -07.6524 26254.6
 14 10 2013  04 25  -21.0123 26020.9 -03496.2 -07.6525 26254.7
 14 10 2013  04 26  -21.0126 26020.9 -03496.2 -07.6526 26254.8
 14 10 2013  04 27  -21.0127 26021.1 -03496.3 -07.6527 26255.0
 14 10 2013  04 28  -21.0128 26021.3 -03496.4 -07.6529 26255.1
 14 10 2013  04 29  -21.0130 26021.2 -03496.4 -07.6528 26255.1
 14 10 2013  04 30  -21.0127 26021.6 -03496.6 -07.6531 26255.5
 14 10 2013  04 31  -21.0129 26021.5 -03496.6 -07.6531 26255.4
 14 10 2013  04 32  -21.0125 26021.8 -03496.6 -07.6532 26255.6
 14 10 2013  04 33  -21.0124 26021.8 -03496.6 -07.6532 26255.7
 14 10 2013  04 34  -21.0123 26021.9 -03496.7 -07.6534 26255.8
 14 10 2013  04 35  -21.0121 26022.1 -03496.8 -07.6534 26255.9
 14 10 2013  04 36  -21.0118 26022.2 -03496.8 -07.6535 26256.1
 14 10 2013  04 37  -21.0121 26022.0 -03496.9 -07.6536 26255.9
 14 10 2013  04 38  -21.0117 26022.0 -03496.7 -07.6533 26255.9
 14 10 2013  04 39  -21.0116 26022.2 -03496.9 -07.6536 26256.1
 14 10 2013  04 40  -21.0116 26021.9 -03496.7 -07.6533 26255.8
 14 10 2013  04 41  -21.0114 26022.3 -03496.9 -07.6537 26256.2
 14 10 2013  04 42  -21.0115 26022.4 -03497.0 -07.6537 26256.3
 14 10 2013  04 43  -21.0116 26022.3 -03497.0 -07.6538 26256.2
 14 10 2013  04 44  -21.0119 26022.6 -03497.1 -07.6539 26256.5
 14 10 2013  04 45  -21.0124 26022.2 -03497.0 -07.6537 26256.1
 14 10 2013  04 46  -21.0121 26022.3 -03496.9 -07.6537 26256.2
 14 10 2013  04 47  -21.0125 26022.0 -03496.8 -07.6535 26255.9
 14 10 2013  04 48  -21.0125 26021.8 -03496.7 -07.6532 26255.6
 14 10 2013  04 49  -21.0127 26021.7 -03496.6 -07.6531 26255.6
 14 10 2013  04 50  -21.0130 26021.6 -03496.6 -07.6531 26255.5
 14 10 2013  04 51  -21.0126 26021.7 -03496.6 -07.6531 26255.5
 14 10 2013  04 52  -21.0127 26021.6 -03496.6 -07.6530 26255.4
 14 10 2013  04 53  -21.0128 26021.7 -03496.6 -07.6532 26255.6
 14 10 2013  04 54  -21.0129 26021.6 -03496.6 -07.6532 26255.5
 14 10 2013  04 55  -21.0124 26021.7 -03496.6 -07.6532 26255.6
 14 10 2013  04 56  -21.0119 26021.7 -03496.6 -07.6532 26255.6
 14 10 2013  04 57  -21.0115 26021.7 -03496.6 -07.6531 26255.6
 14 10 2013  04 58  -21.0115 26022.0 -03496.8 -07.6535 26255.9
 14 10 2013  04 59  -21.0114 26021.9 -03496.8 -07.6535 26255.8
 14 10 2013  05 00  -21.0112 26022.1 -03496.9 -07.6536 26256.0
 14 10 2013  05 01  -21.0115 26022.3 -03497.0 -07.6538 26256.3
 14 10 2013  05 02  -21.0120 26022.5 -03497.1 -07.6539 26256.4
 14 10 2013  05 03  -21.0123 26023.0 -03497.4 -07.6544 26257.0
 14 10 2013  05 04  -21.0126 26023.0 -03497.4 -07.6544 26257.0
 14 10 2013  05 05  -21.0124 26023.3 -03497.4 -07.6545 26257.2
 14 10 2013  05 06  -21.0122 26023.1 -03497.3 -07.6542 26257.1
 14 10 2013  05 07  -21.0119 26023.4 -03497.4 -07.6543 26257.4
 14 10 2013  05 08  -21.0120 26023.3 -03497.3 -07.6542 26257.3
 14 10 2013  05 09  -21.0118 26023.6 -03497.4 -07.6543 26257.5
 14 10 2013  05 10  -21.0118 26023.6 -03497.4 -07.6543 26257.5
 14 10 2013  05 11  -21.0114 26024.2 -03497.6 -07.6545 26258.2
 14 10 2013  05 12  -21.0114 26024.3 -03497.7 -07.6548 26258.3
 14 10 2013  05 13  -21.0106 26024.7 -03497.8 -07.6547 26258.7
 14 10 2013  05 14  -21.0108 26024.5 -03497.7 -07.6547 26258.5
