SAO LUIS EMBRACE-03 <301> 1 Min. Reported data

 DD MM YYYY  HH MM   D(Deg)  H(nT)   Z(nT)   I(Deg)   F(nT)

 28 10 2013  00 00  -20.9915 26030.5 -03500.4 -07.6588 26264.8
 28 10 2013  00 01  -20.9917 26030.5 -03500.5 -07.6589 26264.8
 28 10 2013  00 02  -20.9917 26030.4 -03500.4 -07.6588 26264.7
 28 10 2013  00 03  -20.9917 26030.4 -03500.4 -07.6588 26264.7
 28 10 2013  00 04  -20.9918 26030.4 -03500.5 -07.6589 26264.7
 28 10 2013  00 05  -20.9919 26030.4 -03500.5 -07.6591 26264.7
 28 10 2013  00 06  -20.9920 26030.4 -03500.5 -07.6591 26264.7
 28 10 2013  00 07  -20.9921 26030.4 -03500.6 -07.6592 26264.7
 28 10 2013  00 08  -20.9921 26030.4 -03500.6 -07.6592 26264.7
 28 10 2013  00 09  -20.9921 26030.4 -03500.6 -07.6592 26264.7
 28 10 2013  00 10  -20.9921 26030.4 -03500.6 -07.6593 26264.7
 28 10 2013  00 11  -20.9921 26030.4 -03500.7 -07.6594 26264.7
 28 10 2013  00 12  -20.9921 26030.3 -03500.6 -07.6593 26264.7
 28 10 2013  00 13  -20.9924 26030.1 -03500.5 -07.6592 26264.4
 28 10 2013  00 14  -20.9926 26029.8 -03500.4 -07.6590 26264.1
 28 10 2013  00 15  -20.9927 26029.4 -03500.3 -07.6588 26263.7
 28 10 2013  00 16  -20.9929 26029.2 -03500.2 -07.6586 26263.5
 28 10 2013  00 17  -20.9929 26028.9 -03500.0 -07.6585 26263.2
 28 10 2013  00 18  -20.9930 26028.7 -03499.9 -07.6583 26262.9
 28 10 2013  00 19  -20.9930 26028.5 -03499.9 -07.6583 26262.7
 28 10 2013  00 20  -20.9929 26028.4 -03499.8 -07.6582 26262.6
 28 10 2013  00 21  -20.9931 26028.3 -03499.9 -07.6583 26262.6
 28 10 2013  00 22  -20.9932 26028.4 -03500.0 -07.6585 26262.6
 28 10 2013  00 23  -20.9934 26028.3 -03500.0 -07.6586 26262.6
 28 10 2013  00 24  -20.9936 26028.2 -03500.0 -07.6586 26262.5
 28 10 2013  00 25  -20.9939 26028.1 -03500.0 -07.6586 26262.4
 28 10 2013  00 26  -20.9942 26028.1 -03500.1 -07.6587 26262.4
 28 10 2013  00 27  -20.9943 26028.2 -03500.1 -07.6588 26262.5
 28 10 2013  00 28  -20.9943 26028.3 -03500.2 -07.6589 26262.6
 28 10 2013  00 29  -20.9939 26028.7 -03500.3 -07.6592 26263.0
 28 10 2013  00 30  -20.9937 26029.4 -03500.7 -07.6597 26263.7
 28 10 2013  00 31  -20.9934 26030.2 -03501.1 -07.6603 26264.6
 28 10 2013  00 32  -20.9933 26031.0 -03501.5 -07.6609 26265.4
 28 10 2013  00 33  -20.9933 26031.6 -03501.8 -07.6615 26266.1
 28 10 2013  00 34  -20.9932 26032.0 -03502.0 -07.6618 26266.5
 28 10 2013  00 35  -20.9933 26032.0 -03501.9 -07.6616 26266.5
 28 10 2013  00 36  -20.9932 26031.8 -03501.7 -07.6613 26266.3
 28 10 2013  00 37  -20.9931 26031.7 -03501.6 -07.6610 26266.2
 28 10 2013  00 38  -20.9927 26031.6 -03501.5 -07.6608 26266.0
 28 10 2013  00 39  -20.9924 26031.6 -03501.4 -07.6606 26266.0
 28 10 2013  00 40  -20.9924 26031.5 -03501.3 -07.6605 26265.9
 28 10 2013  00 41  -20.9925 26031.4 -03501.3 -07.6604 26265.9
 28 10 2013  00 42  -20.9925 26031.2 -03501.2 -07.6602 26265.6
 28 10 2013  00 43  -20.9927 26031.4 -03501.2 -07.6603 26265.8
 28 10 2013  00 44  -20.9928 26031.3 -03501.2 -07.6603 26265.7
 28 10 2013  00 45  -20.9929 26031.1 -03501.1 -07.6601 26265.5
 28 10 2013  00 46  -20.9929 26031.1 -03501.1 -07.6601 26265.5
 28 10 2013  00 47  -20.9928 26031.1 -03501.0 -07.6600 26265.4
 28 10 2013  00 48  -20.9928 26031.2 -03501.1 -07.6601 26265.6
 28 10 2013  00 49  -20.9927 26031.3 -03501.1 -07.6601 26265.6
 28 10 2013  00 50  -20.9928 26031.2 -03501.1 -07.6601 26265.6
 28 10 2013  00 51  -20.9930 26031.1 -03501.0 -07.6600 26265.5
 28 10 2013  00 52  -20.9930 26031.1 -03501.1 -07.6600 26265.5
 28 10 2013  00 53  -20.9930 26031.1 -03501.0 -07.6600 26265.5
 28 10 2013  00 54  -20.9933 26030.9 -03501.0 -07.6599 26265.3
 28 10 2013  00 55  -20.9934 26030.7 -03500.9 -07.6597 26265.1
 28 10 2013  00 56  -20.9936 26030.4 -03500.7 -07.6594 26264.7
 28 10 2013  00 57  -20.9941 26029.9 -03500.5 -07.6591 26264.2
 28 10 2013  00 58  -20.9947 26029.3 -03500.2 -07.6587 26263.6
 28 10 2013  00 59  -20.9953 26028.9 -03500.0 -07.6584 26263.2
 28 10 2013  01 00  -20.9959 26028.4 -03499.8 -07.6581 26262.6
 28 10 2013  01 01  -20.9964 26027.9 -03499.6 -07.6578 26262.2
 28 10 2013  01 02  -20.9965 26027.8 -03499.5 -07.6577 26262.0
 28 10 2013  01 03  -20.9965 26027.8 -03499.6 -07.6578 26262.1
 28 10 2013  01 04  -20.9965 26028.0 -03499.7 -07.6580 26262.2
 28 10 2013  01 05  -20.9968 26028.1 -03499.8 -07.6582 26262.4
 28 10 2013  01 06  -20.9971 26028.3 -03500.0 -07.6585 26262.6
 28 10 2013  01 07  -20.9973 26028.4 -03500.0 -07.6586 26262.6
 28 10 2013  01 08  -20.9974 26028.3 -03500.0 -07.6586 26262.6
 28 10 2013  01 09  -20.9976 26028.2 -03500.0 -07.6585 26262.5
 28 10 2013  01 10  -20.9978 26028.1 -03499.9 -07.6584 26262.3
 28 10 2013  01 11  -20.9980 26028.1 -03499.9 -07.6585 26262.4
 28 10 2013  01 12  -20.9982 26028.0 -03499.9 -07.6585 26262.3
 28 10 2013  01 13  -20.9982 26027.9 -03499.8 -07.6583 26262.1
 28 10 2013  01 14  -20.9982 26027.9 -03499.9 -07.6584 26262.2
 28 10 2013  01 15  -20.9982 26028.0 -03499.9 -07.6585 26262.2
 28 10 2013  01 16  -20.9983 26027.9 -03500.0 -07.6586 26262.2
 28 10 2013  01 17  -20.9983 26028.0 -03500.0 -07.6586 26262.2
 28 10 2013  01 18  -20.9982 26027.9 -03500.0 -07.6586 26262.2
 28 10 2013  01 19  -20.9983 26027.9 -03500.0 -07.6586 26262.1
 28 10 2013  01 20  -20.9981 26027.9 -03500.0 -07.6587 26262.1
 28 10 2013  01 21  -20.9982 26027.9 -03500.0 -07.6587 26262.2
 28 10 2013  01 22  -20.9983 26027.8 -03500.1 -07.6588 26262.1
 28 10 2013  01 23  -20.9985 26027.7 -03500.1 -07.6589 26262.0
 28 10 2013  01 24  -20.9985 26027.6 -03500.0 -07.6588 26261.9
 28 10 2013  01 25  -20.9984 26027.5 -03500.0 -07.6588 26261.7
 28 10 2013  01 26  -20.9985 26027.5 -03500.0 -07.6588 26261.7
 28 10 2013  01 27  -20.9986 26027.5 -03500.1 -07.6589 26261.8
 28 10 2013  01 28  -20.9987 26027.7 -03500.2 -07.6592 26262.0
 28 10 2013  01 29  -20.9987 26027.8 -03500.3 -07.6594 26262.1
 28 10 2013  01 30  -20.9987 26027.8 -03500.3 -07.6594 26262.1
 28 10 2013  01 31  -20.9987 26027.8 -03500.3 -07.6594 26262.1
 28 10 2013  01 32  -20.9985 26027.7 -03500.3 -07.6594 26262.0
 28 10 2013  01 33  -20.9985 26027.5 -03500.2 -07.6592 26261.8
 28 10 2013  01 34  -20.9988 26027.2 -03500.1 -07.6591 26261.5
 28 10 2013  01 35  -20.9990 26026.7 -03499.9 -07.6588 26261.0
 28 10 2013  01 36  -20.9992 26026.3 -03499.7 -07.6585 26260.5
 28 10 2013  01 37  -20.9995 26025.9 -03499.5 -07.6582 26260.2
 28 10 2013  01 38  -20.9995 26025.9 -03499.6 -07.6583 26260.2
 28 10 2013  01 39  -20.9993 26026.1 -03499.7 -07.6585 26260.3
 28 10 2013  01 40  -20.9991 26026.3 -03499.8 -07.6588 26260.5
 28 10 2013  01 41  -20.9989 26026.4 -03499.9 -07.6590 26260.7
 28 10 2013  01 42  -20.9989 26026.5 -03500.0 -07.6591 26260.8
 28 10 2013  01 43  -20.9990 26026.6 -03500.1 -07.6592 26260.9
 28 10 2013  01 44  -20.9991 26026.6 -03500.2 -07.6594 26260.9
 28 10 2013  01 45  -20.9991 26026.7 -03500.2 -07.6594 26261.0
 28 10 2013  01 46  -20.9991 26026.7 -03500.2 -07.6595 26261.1
 28 10 2013  01 47  -20.9992 26026.6 -03500.2 -07.6594 26260.9
 28 10 2013  01 48  -20.9992 26026.4 -03500.0 -07.6592 26260.6
 28 10 2013  01 49  -20.9992 26026.2 -03499.9 -07.6590 26260.4
 28 10 2013  01 50  -20.9993 26026.0 -03499.9 -07.6589 26260.3
 28 10 2013  01 51  -20.9993 26025.9 -03499.8 -07.6589 26260.2
 28 10 2013  01 52  -20.9994 26026.0 -03499.9 -07.6590 26260.2
 28 10 2013  01 53  -20.9993 26026.1 -03500.0 -07.6591 26260.4
 28 10 2013  01 54  -20.9992 26026.3 -03500.1 -07.6594 26260.6
 28 10 2013  01 55  -20.9989 26026.5 -03500.2 -07.6595 26260.8
 28 10 2013  01 56  -20.9988 26026.7 -03500.4 -07.6598 26261.0
 28 10 2013  01 57  -20.9987 26026.8 -03500.5 -07.6600 26261.2
 28 10 2013  01 58  -20.9987 26026.9 -03500.5 -07.6600 26261.2
 28 10 2013  01 59  -20.9989 26026.8 -03500.5 -07.6600 26261.1
 28 10 2013  02 00  -20.9989 26026.6 -03500.4 -07.6599 26261.0
 28 10 2013  02 01  -20.9989 26026.5 -03500.4 -07.6599 26260.9
 28 10 2013  02 02  -20.9987 26026.5 -03500.4 -07.6599 26260.8
 28 10 2013  02 03  -20.9987 26026.4 -03500.4 -07.6599 26260.8
 28 10 2013  02 04  -20.9989 26026.3 -03500.4 -07.6600 26260.7
 28 10 2013  02 05  -20.9990 26026.3 -03500.4 -07.6600 26260.6
 28 10 2013  02 06  -20.9991 26026.3 -03500.5 -07.6601 26260.6
 28 10 2013  02 07  -20.9991 26026.2 -03500.5 -07.6602 26260.5
 28 10 2013  02 08  -20.9991 26026.1 -03500.5 -07.6602 26260.4
 28 10 2013  02 09  -20.9991 26026.1 -03500.5 -07.6602 26260.5
 28 10 2013  02 10  -20.9993 26026.2 -03500.6 -07.6605 26260.5
 28 10 2013  02 11  -20.9992 26026.2 -03500.7 -07.6606 26260.6
 28 10 2013  02 12  -20.9993 26026.2 -03500.7 -07.6607 26260.6
 28 10 2013  02 13  -20.9993 26026.2 -03500.8 -07.6609 26260.6
 28 10 2013  02 14  -20.9993 26026.1 -03500.8 -07.6609 26260.5
 28 10 2013  02 15  -20.9993 26026.0 -03500.8 -07.6609 26260.4
 28 10 2013  02 16  -20.9995 26025.9 -03500.8 -07.6610 26260.3
 28 10 2013  02 17  -20.9994 26025.8 -03500.8 -07.6610 26260.2
 28 10 2013  02 18  -20.9994 26025.8 -03500.8 -07.6611 26260.2
 28 10 2013  02 19  -20.9995 26025.7 -03500.9 -07.6612 26260.1
 28 10 2013  02 20  -20.9995 26025.7 -03500.9 -07.6613 26260.1
 28 10 2013  02 21  -20.9995 26025.8 -03501.1 -07.6616 26260.2
 28 10 2013  02 22  -20.9998 26025.9 -03501.2 -07.6619 26260.3
 28 10 2013  02 23  -20.9998 26026.0 -03501.4 -07.6622 26260.5
 28 10 2013  02 24  -20.9998 26026.1 -03501.5 -07.6625 26260.6
 28 10 2013  02 25  -20.9997 26026.2 -03501.6 -07.6627 26260.7
 28 10 2013  02 26  -20.9999 26026.2 -03501.7 -07.6629 26260.7
 28 10 2013  02 27  -21.0004 26026.0 -03501.7 -07.6629 26260.5
 28 10 2013  02 28  -21.0008 26026.0 -03501.7 -07.6630 26260.5
 28 10 2013  02 29  -21.0012 26026.0 -03501.8 -07.6631 26260.5
 28 10 2013  02 30  -21.0017 26025.7 -03501.7 -07.6631 26260.2
 28 10 2013  02 31  -21.0021 26025.5 -03501.7 -07.6631 26260.0
 28 10 2013  02 32  -21.0024 26025.4 -03501.7 -07.6631 26259.9
 28 10 2013  02 33  -21.0030 26025.1 -03501.7 -07.6631 26259.7
 28 10 2013  02 34  -21.0035 26025.0 -03501.7 -07.6631 26259.5
 28 10 2013  02 35  -21.0040 26024.9 -03501.7 -07.6632 26259.4
 28 10 2013  02 36  -21.0044 26024.8 -03501.7 -07.6633 26259.3
 28 10 2013  02 37  -21.0049 26024.8 -03501.8 -07.6634 26259.4
 28 10 2013  02 38  -21.0054 26024.9 -03501.8 -07.6635 26259.4
 28 10 2013  02 39  -21.0059 26024.9 -03501.9 -07.6637 26259.4
 28 10 2013  02 40  -21.0066 26024.9 -03502.0 -07.6638 26259.5
 28 10 2013  02 41  -21.0072 26025.1 -03502.1 -07.6640 26259.7
 28 10 2013  02 42  -21.0075 26025.3 -03502.2 -07.6642 26259.8
 28 10 2013  02 43  -21.0082 26025.4 -03502.3 -07.6643 26260.0
 28 10 2013  02 44  -21.0087 26025.5 -03502.3 -07.6644 26260.1
 28 10 2013  02 45  -21.0093 26025.5 -03502.3 -07.6643 26260.1
 28 10 2013  02 46  -21.0099 26025.5 -03502.3 -07.6643 26260.1
 28 10 2013  02 47  -21.0103 26025.5 -03502.2 -07.6642 26260.1
 28 10 2013  02 48  -21.0106 26025.7 -03502.2 -07.6641 26260.3
 28 10 2013  02 49  -21.0112 26025.3 -03502.0 -07.6638 26259.9
 28 10 2013  02 50  -21.0117 26025.1 -03501.8 -07.6634 26259.7
 28 10 2013  02 51  -21.0124 26025.0 -03501.8 -07.6633 26259.5
 28 10 2013  02 52  -21.0132 26024.8 -03501.6 -07.6631 26259.3
 28 10 2013  02 53  -21.0140 26024.7 -03501.5 -07.6628 26259.2
 28 10 2013  02 54  -21.0145 26024.6 -03501.4 -07.6626 26259.1
 28 10 2013  02 55  -21.0150 26024.5 -03501.2 -07.6623 26259.0
 28 10 2013  02 56  -21.0157 26024.6 -03501.2 -07.6622 26259.1
 28 10 2013  02 57  -21.0161 26024.8 -03501.2 -07.6621 26259.2
 28 10 2013  02 58  -21.0166 26025.0 -03501.2 -07.6622 26259.5
 28 10 2013  02 59  -21.0168 26025.2 -03501.2 -07.6621 26259.6
 28 10 2013  03 00  -21.0171 26025.3 -03501.2 -07.6620 26259.8
 28 10 2013  03 01  -21.0174 26025.4 -03501.1 -07.6618 26259.8
 28 10 2013  03 02  -21.0175 26025.5 -03501.0 -07.6616 26260.0
 28 10 2013  03 03  -21.0177 26025.6 -03500.9 -07.6614 26260.0
 28 10 2013  03 04  -21.0176 26025.5 -03500.8 -07.6611 26259.9
 28 10 2013  03 05  -21.0177 26025.3 -03500.6 -07.6606 26259.6
 28 10 2013  03 06  -21.0183 26025.3 -03500.5 -07.6604 26259.7
 28 10 2013  03 07  -21.0187 26025.2 -03500.4 -07.6603 26259.6
 28 10 2013  03 08  -21.0187 26025.1 -03500.2 -07.6599 26259.5
 28 10 2013  03 09  -21.0185 26025.3 -03500.2 -07.6598 26259.6
 28 10 2013  03 10  -21.0181 26025.5 -03500.2 -07.6598 26259.9
 28 10 2013  03 11  -21.0176 26025.9 -03500.3 -07.6598 26260.2
 28 10 2013  03 12  -21.0171 26026.3 -03500.4 -07.6599 26260.6
 28 10 2013  03 13  -21.0168 26026.3 -03500.4 -07.6599 26260.6
 28 10 2013  03 14  -21.0168 26026.3 -03500.3 -07.6597 26260.6
 28 10 2013  03 15  -21.0168 26026.3 -03500.2 -07.6595 26260.6
 28 10 2013  03 16  -21.0168 26026.4 -03500.2 -07.6595 26260.7
 28 10 2013  03 17  -21.0165 26026.5 -03500.2 -07.6594 26260.8
 28 10 2013  03 18  -21.0163 26026.5 -03500.1 -07.6593 26260.8
 28 10 2013  03 19  -21.0158 26026.5 -03500.0 -07.6591 26260.8
 28 10 2013  03 20  -21.0154 26026.4 -03499.9 -07.6589 26260.7
 28 10 2013  03 21  -21.0152 26026.4 -03499.8 -07.6588 26260.6
 28 10 2013  03 22  -21.0149 26026.5 -03499.8 -07.6587 26260.7
 28 10 2013  03 23  -21.0147 26026.5 -03499.8 -07.6586 26260.7
 28 10 2013  03 24  -21.0145 26026.5 -03499.7 -07.6585 26260.7
 28 10 2013  03 25  -21.0139 26026.5 -03499.7 -07.6584 26260.8
 28 10 2013  03 26  -21.0135 26026.5 -03499.6 -07.6582 26260.7
 28 10 2013  03 27  -21.0130 26026.6 -03499.6 -07.6581 26260.8
 28 10 2013  03 28  -21.0125 26026.6 -03499.6 -07.6582 26260.9
 28 10 2013  03 29  -21.0123 26026.5 -03499.5 -07.6580 26260.8
 28 10 2013  03 30  -21.0121 26026.5 -03499.5 -07.6579 26260.7
 28 10 2013  03 31  -21.0118 26026.6 -03499.4 -07.6578 26260.8
 28 10 2013  03 32  -21.0115 26026.5 -03499.4 -07.6578 26260.7
 28 10 2013  03 33  -21.0112 26026.5 -03499.3 -07.6577 26260.6
 28 10 2013  03 34  -21.0107 26026.4 -03499.3 -07.6575 26260.6
 28 10 2013  03 35  -21.0104 26026.4 -03499.2 -07.6575 26260.6
 28 10 2013  03 36  -21.0098 26026.4 -03499.2 -07.6574 26260.6
 28 10 2013  03 37  -21.0093 26026.4 -03499.2 -07.6574 26260.6
 28 10 2013  03 38  -21.0090 26026.5 -03499.2 -07.6574 26260.7
 28 10 2013  03 39  -21.0088 26026.5 -03499.2 -07.6574 26260.7
 28 10 2013  03 40  -21.0085 26026.5 -03499.2 -07.6574 26260.7
 28 10 2013  03 41  -21.0079 26026.5 -03499.3 -07.6574 26260.7
 28 10 2013  03 42  -21.0076 26026.6 -03499.3 -07.6575 26260.8
 28 10 2013  03 43  -21.0071 26026.5 -03499.2 -07.6574 26260.7
 28 10 2013  03 44  -21.0070 26026.5 -03499.2 -07.6573 26260.7
 28 10 2013  03 45  -21.0069 26026.5 -03499.2 -07.6573 26260.7
 28 10 2013  03 46  -21.0065 26026.5 -03499.2 -07.6573 26260.6
 28 10 2013  03 47  -21.0059 26026.6 -03499.2 -07.6574 26260.8
 28 10 2013  03 48  -21.0053 26026.6 -03499.2 -07.6574 26260.8
 28 10 2013  03 49  -21.0051 26026.7 -03499.3 -07.6575 26260.9
 28 10 2013  03 50  -21.0050 26026.8 -03499.4 -07.6576 26261.0
 28 10 2013  03 51  -21.0047 26027.0 -03499.5 -07.6579 26261.3
 28 10 2013  03 52  -21.0041 26027.4 -03499.6 -07.6581 26261.6
 28 10 2013  03 53  -21.0038 26027.4 -03499.6 -07.6581 26261.6
 28 10 2013  03 54  -21.0038 26027.1 -03499.6 -07.6580 26261.3
 28 10 2013  03 55  -21.0039 26027.0 -03499.5 -07.6578 26261.3
 28 10 2013  03 56  -21.0038 26027.1 -03499.6 -07.6579 26261.4
 28 10 2013  03 57  -21.0034 26027.4 -03499.6 -07.6580 26261.6
 28 10 2013  03 58  -21.0030 26027.5 -03499.7 -07.6581 26261.7
 28 10 2013  03 59  -21.0026 26027.3 -03499.6 -07.6580 26261.5
 28 10 2013  04 00  -21.0024 26027.2 -03499.6 -07.6580 26261.4
 28 10 2013  04 01  -21.0024 26027.2 -03499.6 -07.6580 26261.4
 28 10 2013  04 02  -21.0023 26027.3 -03499.7 -07.6582 26261.6
 28 10 2013  04 03  -21.0020 26027.5 -03499.8 -07.6583 26261.7
 28 10 2013  04 04  -21.0019 26027.5 -03499.8 -07.6584 26261.8
 28 10 2013  04 05  -21.0019 26027.6 -03499.9 -07.6585 26261.9
 28 10 2013  04 06  -21.0017 26027.6 -03499.9 -07.6586 26261.9
 28 10 2013  04 07  -21.0014 26027.8 -03500.0 -07.6587 26262.1
 28 10 2013  04 08  -21.0012 26028.0 -03500.1 -07.6589 26262.2
 28 10 2013  04 09  -21.0008 26028.0 -03500.1 -07.6589 26262.3
 28 10 2013  04 10  -21.0007 26028.1 -03500.2 -07.6590 26262.4
 28 10 2013  04 11  -21.0006 26028.1 -03500.2 -07.6591 26262.4
 28 10 2013  04 12  -21.0004 26028.0 -03500.2 -07.6591 26262.3
 28 10 2013  04 13  -21.0004 26028.1 -03500.2 -07.6591 26262.4
 28 10 2013  04 14  -21.0002 26028.1 -03500.2 -07.6591 26262.4
 28 10 2013  04 15  -21.0001 26028.1 -03500.3 -07.6592 26262.4
 28 10 2013  04 16  -21.0002 26028.1 -03500.3 -07.6593 26262.4
 28 10 2013  04 17  -21.0002 26028.3 -03500.4 -07.6594 26262.6
 28 10 2013  04 18  -21.0004 26028.5 -03500.5 -07.6597 26262.8
 28 10 2013  04 19  -21.0002 26028.6 -03500.6 -07.6598 26262.9
 28 10 2013  04 20  -20.9997 26028.9 -03500.8 -07.6600 26263.3
 28 10 2013  04 21  -20.9996 26029.4 -03501.0 -07.6604 26263.8
 28 10 2013  04 22  -20.9991 26029.6 -03501.1 -07.6606 26264.0
 28 10 2013  04 23  -20.9987 26029.6 -03501.1 -07.6606 26264.1
 28 10 2013  04 24  -20.9981 26029.7 -03501.2 -07.6607 26264.1
 28 10 2013  04 25  -20.9974 26029.9 -03501.3 -07.6608 26264.3
 28 10 2013  04 26  -20.9970 26029.9 -03501.3 -07.6608 26264.3
 28 10 2013  04 27  -20.9971 26029.7 -03501.2 -07.6607 26264.1
 28 10 2013  04 28  -20.9974 26029.5 -03501.1 -07.6606 26263.9
 28 10 2013  04 29  -20.9978 26029.5 -03501.1 -07.6607 26263.9
 28 10 2013  04 30  -20.9980 26029.4 -03501.1 -07.6607 26263.8
 28 10 2013  04 31  -20.9978 26029.3 -03501.1 -07.6606 26263.7
 28 10 2013  04 32  -20.9976 26029.2 -03501.0 -07.6605 26263.6
 28 10 2013  04 33  -20.9977 26029.0 -03500.9 -07.6603 26263.4
 28 10 2013  04 34  -20.9980 26028.6 -03500.8 -07.6602 26263.0
 28 10 2013  04 35  -20.9980 26028.4 -03500.7 -07.6600 26262.8
 28 10 2013  04 36  -20.9979 26028.6 -03500.7 -07.6601 26262.9
 28 10 2013  04 37  -20.9979 26028.4 -03500.8 -07.6602 26262.8
 28 10 2013  04 38  -20.9983 26028.2 -03500.7 -07.6600 26262.6
 28 10 2013  04 39  -20.9986 26028.3 -03500.7 -07.6601 26262.6
 28 10 2013  04 40  -20.9987 26028.4 -03500.8 -07.6602 26262.7
 28 10 2013  04 41  -20.9987 26028.7 -03501.0 -07.6605 26263.1
 28 10 2013  04 42  -20.9986 26029.0 -03501.1 -07.6608 26263.4
 28 10 2013  04 43  -20.9986 26029.2 -03501.2 -07.6609 26263.6
 28 10 2013  04 44  -20.9983 26029.3 -03501.3 -07.6610 26263.7
 28 10 2013  04 45  -20.9978 26029.4 -03501.3 -07.6611 26263.8
 28 10 2013  04 46  -20.9975 26029.5 -03501.4 -07.6611 26263.9
 28 10 2013  04 47  -20.9971 26029.4 -03501.3 -07.6611 26263.8
 28 10 2013  04 48  -20.9968 26029.3 -03501.3 -07.6610 26263.8
 28 10 2013  04 49  -20.9973 26029.2 -03501.2 -07.6610 26263.6
 28 10 2013  04 50  -20.9977 26029.0 -03501.2 -07.6610 26263.4
 28 10 2013  04 51  -20.9977 26029.1 -03501.2 -07.6610 26263.5
 28 10 2013  04 52  -20.9975 26029.2 -03501.2 -07.6610 26263.6
 28 10 2013  04 53  -20.9973 26029.0 -03501.2 -07.6609 26263.5
 28 10 2013  04 54  -20.9977 26028.9 -03501.1 -07.6608 26263.3
 28 10 2013  04 55  -20.9982 26028.8 -03501.1 -07.6608 26263.2
 28 10 2013  04 56  -20.9984 26028.9 -03501.1 -07.6608 26263.3
 28 10 2013  04 57  -20.9983 26028.8 -03501.1 -07.6607 26263.2
 28 10 2013  04 58  -20.9983 26028.8 -03501.1 -07.6608 26263.2
 28 10 2013  04 59  -20.9985 26028.8 -03501.1 -07.6608 26263.2
 28 10 2013  05 00  -20.9987 26028.7 -03501.1 -07.6607 26263.1
 28 10 2013  05 01  -20.9991 26028.7 -03501.1 -07.6607 26263.1
 28 10 2013  05 02  -20.9993 26028.7 -03501.0 -07.6607 26263.1
 28 10 2013  05 03  -20.9992 26028.6 -03501.0 -07.6606 26263.0
 28 10 2013  05 04  -20.9993 26028.4 -03500.9 -07.6605 26262.8
 28 10 2013  05 05  -20.9997 26028.2 -03500.8 -07.6603 26262.5
 28 10 2013  05 06  -21.0003 26028.0 -03500.7 -07.6601 26262.4
 28 10 2013  05 07  -21.0009 26028.1 -03500.8 -07.6602 26262.4
 28 10 2013  05 08  -21.0008 26028.2 -03500.8 -07.6603 26262.6
 28 10 2013  05 09  -21.0004 26028.2 -03500.7 -07.6602 26262.6
 28 10 2013  05 10  -21.0006 26028.1 -03500.7 -07.6601 26262.4
 28 10 2013  05 11  -21.0008 26027.9 -03500.6 -07.6600 26262.2
 28 10 2013  05 12  -21.0008 26027.7 -03500.5 -07.6599 26262.0
 28 10 2013  05 13  -21.0014 26027.6 -03500.5 -07.6598 26261.9
 28 10 2013  05 14  -21.0018 26027.6 -03500.5 -07.6598 26261.9
